Data from deutdg_400ms_10_SR4014911__0__16-43-39-286.txt Node

Date: Sun Jul 13 16:43:39 EDT 2025
User: cryst
Spectrometer: SR401491
Trigger mode: 0
Integration Time (sec): 4.000000E-1
Scans to average: 10
Electric dark correction enabled: true
Nonlinearity correction enabled: true
Boxcar width: 0
XAxis mode: Wavelengths
Number of Pixels in Spectrum: 3648
>>>>>Begin Spectral Data<<<<<
344.912	-714.54385
345.129	-704.89946
345.347	-746.3115
345.565	-717.57264
345.783	342.4117
346.001	172.05924
346.219	141.00524
346.437	219.4933
346.654	498.42094
346.872	169.0311
347.09	-82.17911
347.308	433.86279
347.526	271.05126
347.743	65.44204
347.961	590.47701
348.179	307.02237
348.397	395.89933
348.614	554.73292
348.832	648.33039
349.05	641.9428
349.268	780.59735
349.485	743.46625
349.703	570.20915
349.921	927.46069
350.138	869.5499
350.356	847.75621
350.574	545.1232
350.791	665.78348
351.009	840.45338
351.227	699.70552
351.444	634.27604
351.662	746.22595
351.879	619.78948
352.097	713.94463
352.314	657.37736
352.532	721.91164
352.75	798.08809
352.967	870.92478
353.185	832.61967
353.402	633.31757
353.62	648.22394
353.837	883.1906
354.055	784.30824
354.272	944.77364
354.49	1069.20968
354.707	1062.26642
354.925	655.78101
355.142	798.82992
355.359	957.01443
355.577	927.88306
355.794	927.98865
356.012	1104.53777
356.229	832.5138
356.446	648.86264
356.664	917.32246
356.881	1017.52564
357.099	769.03798
357.316	802.53887
357.533	914.04805
357.751	681.95128
357.968	1366.52453
358.185	991.70973
358.402	877.48118
358.62	1017.52564
358.837	1046.79734
359.054	673.86837
359.272	690.13855
359.489	741.66171
359.706	848.60282
359.923	962.39487
360.141	880.23027
360.358	951.42216
360.575	931.7897
360.792	806.67122
361.009	799.3598
361.226	893.33844
361.444	1181.28717
361.661	905.38528
361.878	894.60672
362.095	744.42156
362.312	1023.10797
362.529	955.00975
362.746	940.23506
362.963	654.9296
363.181	731.2572
363.398	894.39534
363.615	1197.64679
363.832	686.31099
364.049	660.78263
364.266	1171.74098
364.483	919.2236
364.7	791.83484
364.917	609.13347
365.134	917.5337
365.351	888.26488
365.568	1025.42492
365.785	838.44219
366.002	652.16235
366.219	778.15854
366.436	1018.78964
366.652	1082.98728
366.869	819.38307
367.086	1089.71653
367.303	645.98842
367.52	778.37061
367.737	1089.50625
367.954	985.70102
368.171	782.18778
368.387	1271.39284
368.604	857.70257
368.821	951.42216
369.038	743.25396
369.255	952.68841
369.471	676.95287
369.688	1110.21249
369.905	1088.34974
370.122	941.2906
370.339	943.71821
370.555	721.48678
370.772	665.03872
370.989	1359.94535
371.205	807.20097
371.422	888.37059
371.639	740.91864
371.855	1167.4392
372.072	823.19573
372.289	702.14998
372.505	1158.41444
372.722	715.96311
372.939	874.09738
373.155	1107.16506
373.372	735.29198
373.589	1016.57762
373.805	782.92996
374.022	751.10795
374.238	677.16558
374.455	963.55525
374.671	1032.69079
374.888	951.31664
375.104	545.76394
375.321	658.44154
375.537	815.46408
375.754	970.41131
375.97	911.93537
376.187	1225.31718
376.403	786.74662
376.62	894.39534
376.836	767.76515
377.053	889.32193
377.269	797.45222
377.486	736.56602
377.702	553.23827
377.918	634.80852
378.135	842.67614
378.351	1029.11068
378.568	761.82466
378.784	914.78746
379	882.02765
379.217	773.91672
379.433	698.85524
379.649	1076.25685
379.865	788.8668
380.082	1181.81162
380.298	762.46119
380.514	1240.29744
380.731	861.08793
380.947	701.0872
381.163	950.6835
381.379	840.87677
381.596	852.94137
381.812	1141.30374
382.028	955.95935
382.244	841.93524
382.46	705.65693
382.676	1192.92835
382.893	958.17498
383.109	873.78014
383.325	841.08847
383.541	1061.95078
383.757	555.48023
383.973	890.16755
384.189	1114.20532
384.405	930.52273
384.622	917.5337
384.838	1077.09822
385.054	936.75159
385.27	1205.40479
385.486	799.88966
385.702	689.1817
385.918	969.35661
386.134	946.04012
386.35	1042.79751
386.566	1231.70803
386.782	1143.61359
386.998	1150.22742
387.214	963.55525
387.43	963.55525
387.646	1254.53933
387.861	1134.37337
388.077	967.14165
388.293	1053.42771
388.509	1117.14714
388.725	952.47737
388.941	1028.16295
389.157	884.35352
389.373	982.43272
389.588	1048.16561
389.804	973.99705
390.02	1252.65465
390.236	750.47121
390.452	890.48465
390.668	875.68358
390.883	1343.12731
391.099	1045.63954
391.315	1083.19758
391.531	811.01496
391.746	972.62607
391.962	1073.4171
392.178	1079.09639
392.393	947.09548
392.609	1386.36043
392.825	1025.63554
393.041	868.0692
393.256	1119.14325
393.472	1139.83376
393.687	1128.28203
393.903	1312.60805
394.119	1106.53453
394.334	1224.47896
394.55	1310.30776
394.766	1120.29885
394.981	1310.51689
395.197	1317.3128
395.412	1443.20811
395.628	1403.16164
395.843	1445.39711
396.059	1909.98004
396.274	1342.29146
396.49	1661.07209
396.705	1215.2574
396.921	860.4532
397.136	1170.37705
397.352	1171.11148
397.567	1011.62643
397.783	1133.42822
397.998	1101.8052
398.214	1129.33233
398.429	920.59658
398.644	1520.07167
398.86	1052.69106
399.075	1283.95001
399.29	1032.16433
399.506	909.08306
399.721	1040.90271
399.936	1038.69198
400.152	924.6096
400.367	1097.70599
400.582	1084.77485
400.798	1254.74873
401.013	851.24834
401.228	1192.50891
401.444	1188.73372
401.659	1151.48707
401.874	1378.21837
402.089	1176.67172
402.304	1178.03543
402.52	1161.66779
402.735	917.42808
402.95	933.16221
403.165	1172.26555
403.38	1393.24866
403.596	1068.36814
403.811	1263.75204
404.026	1524.54616
404.241	1024.16115
404.456	1019.73761
404.671	1479.78151
404.886	1303.30156
405.101	1038.1656
405.316	1201.10662
405.532	1408.06512
405.747	1241.34481
405.962	1238.93583
406.177	1175.62267
406.392	1114.83573
406.607	1384.69039
406.822	1367.46433
407.037	1544.93599
407.252	1827.41997
407.467	1811.59582
407.682	1886.33073
407.896	2157.84999
408.111	2061.96083
408.326	2241.37158
408.541	2687.91284
408.756	3000.99583
408.971	3130.38703
409.186	3188.52667
409.401	2781.19649
409.616	1557.5191
409.83	1223.11682
410.045	1100.54395
410.26	924.6096
410.475	934.95694
410.69	1203.62268
410.905	1158.51939
411.119	871.03054
411.334	1037.42865
411.549	1098.44177
411.764	1277.14868
411.978	1370.49244
412.193	1169.85245
412.408	991.49892
412.623	822.1367
412.837	1447.79445
413.052	1238.83109
413.267	1221.33548
413.481	1007.20142
413.696	1032.5855
413.911	986.75525
414.125	998.98214
414.34	905.06831
414.554	1005.19945
414.769	1191.46028
414.984	1077.30856
415.198	768.71978
415.413	919.85729
415.627	1148.6528
415.842	971.14958
416.056	1181.18228
416.271	946.04012
416.485	1134.16334
416.7	1145.39838
416.914	1017.52564
417.129	985.80645
417.343	1192.71863
417.558	1068.36814
417.772	1226.88879
417.987	1134.05832
418.201	977.37155
418.415	832.93729
418.63	1066.4746
418.844	1100.54395
419.059	1279.34615
419.273	1096.4446
419.487	1422.77227
419.702	1154.95091
419.916	1469.05224
420.13	1054.16435
420.345	1021.21218
420.559	1048.16561
420.773	1064.16016
420.988	1151.06719
421.202	1416.30591
421.416	1106.63962
421.63	1179.92357
421.845	1212.95169
422.059	1131.01275
422.273	925.66559
422.487	1207.71094
422.701	1492.59079
422.916	1485.40554
423.13	1082.98728
423.344	1047.53411
423.558	987.70403
423.772	935.59036
423.986	1165.6554
424.201	1092.55508
424.415	1429.02915
424.629	1226.26015
424.843	1098.44177
425.057	1286.0425
425.271	858.12576
425.485	861.72264
425.699	873.56864
425.913	1337.3805
426.127	1090.873
426.341	1034.05957
426.555	1095.60366
426.769	1322.64421
426.983	1435.28513
427.197	1231.18423
427.411	1145.08343
427.625	1356.49871
427.839	1113.78504
428.053	1088.45488
428.267	972.94246
428.481	1265.11283
428.695	1025.10898
428.908	832.72554
429.122	1304.13819
429.336	1175.51777
429.55	1119.24831
429.764	1336.33554
429.978	1784.59052
430.191	1956.21619
430.405	2654.03838
430.619	2759.49095
430.833	3653.24951
431.047	4609.46236
431.26	6145.35346
431.474	7267.37474
431.688	8031.62364
431.901	8399.80533
432.115	9972.0452
432.329	10976.40863
432.543	11911.48977
432.756	13801.28579
432.97	14311.02054
433.184	10292.08132
433.397	4921.86643
433.611	1917.31026
433.824	1514.66008
434.038	1236.63145
434.252	1205.50962
434.465	1144.03355
434.679	1050.69151
434.892	1203.30818
435.106	749.72832
435.319	977.37155
435.533	1340.51522
435.747	1279.03223
435.96	921.23024
436.174	1363.49615
436.387	1246.16235
436.601	1241.65901
436.814	1397.42282
437.027	956.80342
437.241	1284.57776
437.454	895.66358
437.668	1372.05862
437.881	1350.33585
438.095	1146.02829
438.308	1238.20263
438.521	1493.00729
438.735	1234.11744
438.948	1241.34481
439.161	1158.51939
439.375	1171.11148
439.588	1300.16408
439.801	1314.07181
440.015	1188.41911
440.228	1388.55226
440.441	1590.26089
440.654	1847.68442
440.868	1690.01042
441.081	1040.16581
441.294	1373.31152
441.507	1379.57549
441.721	1112.94447
441.934	1325.88454
442.147	1161.24802
442.36	1235.58397
442.573	1331.5284
442.786	1024.47709
443	1489.57104
443.213	1276.20687
443.426	1251.60758
443.639	1557.20717
443.852	1390.95271
444.065	1562.1979
444.278	1373.93796
444.491	1502.48165
444.704	1308.00735
444.917	1406.50024
445.13	1365.58471
445.343	1259.77407
445.556	1797.42239
445.769	1858.22712
445.982	1397.84022
446.195	1560.8463
446.408	1448.10714
446.621	1717.27362
446.834	1351.48493
447.047	1319.82178
447.26	1302.15118
447.473	1408.58673
447.686	1446.33522
447.899	1398.57065
448.111	1567.49998
448.324	1443.31235
448.537	1343.12731
448.75	1272.75338
448.963	1345.73924
449.176	1652.04479
449.388	1510.91322
449.601	1393.87481
449.814	1354.09635
450.027	1355.45422
450.239	1328.60205
450.452	1355.66312
450.665	1175.72758
450.878	1325.78002
451.09	1441.2275
451.303	1393.6661
451.516	1294.09762
451.728	1464.78066
451.941	1057.95254
452.154	1529.54042
452.366	1550.76
452.579	1202.99368
452.792	1599.50761
453.004	1465.82254
453.217	1262.3912
453.429	1377.80079
453.642	1254.12052
453.854	1549.72006
454.067	1690.94363
454.28	1761.19511
454.492	1078.57057
454.705	1232.44135
454.917	1201.94532
455.13	1689.38827
455.342	1522.77723
455.555	1155.37075
455.767	1764.30132
455.979	1384.16848
456.192	1579.76522
456.404	1163.03202
456.617	1430.17614
456.829	1320.23993
457.041	1586.83187
457.254	1498.005
457.466	1318.25368
457.679	1391.37016
457.891	1643.43098
458.103	1492.27841
458.315	1436.95325
458.528	1241.65901
458.74	1421.31221
458.952	1349.50014
459.165	1310.72601
459.377	1154.42611
459.589	1009.51935
459.801	1359.21427
460.014	1409.21266
460.226	1333.72303
460.438	1282.1713
460.65	1109.58201
460.862	1405.87427
461.075	1268.46229
461.287	1135.84355
461.499	925.77119
461.711	974.8407
461.923	1237.15519
462.135	1377.3832
462.347	1237.05044
462.559	1344.38106
462.771	1390.11778
462.983	1168.80323
463.196	1418.60053
463.408	1533.90996
463.62	1428.4035
463.832	1645.29916
464.044	1474.78178
464.256	1564.901
464.468	1292.52856
464.68	1456.96572
464.891	1448.00291
465.103	1225.31718
465.315	1681.81815
465.527	1186.53137
465.739	1032.69079
465.951	1168.27861
466.163	1198.8001
466.375	1073.52228
466.587	1494.36089
466.799	1148.54782
467.01	1193.87208
467.222	1190.30676
467.434	1109.89725
467.646	1155.68562
467.858	1325.36192
468.069	1214.943
468.281	1009.30863
468.493	880.44173
468.705	1016.57762
468.916	1103.697
469.128	930.10039
469.34	1016.05093
469.551	1021.84412
469.763	720.4246
469.975	977.37155
470.186	1111.47343
470.398	946.5678
470.61	952.16081
470.821	804.97595
471.033	991.70973
471.245	1390.32651
471.456	844.58125
471.668	1103.17151
471.879	985.38475
472.091	1326.92975
472.302	1323.58497
472.514	1323.16686
472.725	1127.2317
472.937	947.41209
473.148	877.05822
473.36	1150.54234
473.571	1227.83173
473.783	1049.53383
473.994	1104.95815
474.206	1051.21772
474.417	1005.41019
474.629	1249.40863
474.84	1317.10371
475.051	1375.92162
475.263	887.2078
475.474	1075.09994
475.685	1214.20937
475.897	1074.88959
476.108	1422.14654
476.319	948.36188
476.531	1087.08805
476.742	1324.52572
476.953	1362.03409
477.165	1668.95663
477.376	1139.93876
477.587	1191.87974
477.798	1246.47651
478.01	1019.21096
478.221	1251.29345
478.432	1203.93717
478.643	1208.65432
478.854	1088.45488
479.065	1761.29866
479.277	1503.83497
479.488	1420.99933
479.699	1501.75293
479.91	1261.86779
480.121	1524.85832
480.332	1391.68325
480.543	1427.0479
480.754	1079.62221
480.965	1269.82293
481.176	1405.87427
481.387	1774.2399
481.598	1395.33579
481.809	1933.20621
482.02	2785.57766
482.231	5870.13259
482.442	11608.8911
482.653	21048.23542
482.864	31441.61426
483.075	46856.14148
483.286	62995.76925
483.497	62995.76925
483.708	62995.76925
483.919	62995.76925
484.13	62995.76925
484.341	62995.76925
484.551	62995.76925
484.762	62995.76925
484.973	62995.76925
485.184	62995.76925
485.395	62995.76925
485.605	62995.76925
485.816	26770.34984
486.027	5226.86932
486.238	3842.75886
486.449	3713.95643
486.659	2994.89767
486.87	2611.36792
487.081	2476.55973
487.291	2263.33774
487.502	2017.76999
487.713	1790.59292
487.923	1903.06189
488.134	1722.35142
488.345	2298.22167
488.555	1964.3654
488.766	1646.12945
488.976	2000.55823
489.187	1909.46379
489.398	1892.83791
489.608	1942.5971
489.819	1591.71555
490.029	1510.08054
490.24	2136.77176
490.45	1909.25729
490.661	1823.49024
490.871	1622.97996
491.082	1383.85534
491.292	1463.00939
491.503	1716.34091
491.713	1744.41832
491.924	1678.60309
492.134	1594.41694
492.344	1599.81927
492.555	1739.03199
492.765	1821.11157
492.975	1788.6267
493.186	1841.79199
493.396	1794.52515
493.607	1388.761
493.817	1878.16981
494.027	1614.25708
494.237	1462.59261
494.448	1515.3886
494.658	1695.60941
494.868	1347.93314
495.078	1669.37157
495.289	1915.34875
495.499	1616.1264
495.709	1415.78438
495.919	1565.42081
496.129	1568.74744
496.34	1295.87581
496.55	1188.52398
496.76	1597.84541
496.97	1666.25943
497.18	1500.60776
497.39	1494.25677
497.6	1730.43339
497.81	1840.03448
498.021	1818.42252
498.231	1874.55381
498.441	1638.76019
498.651	1450.71279
498.861	1233.06989
499.071	1522.04883
499.281	1725.14917
499.491	1461.65485
499.701	1554.60761
499.911	1643.43098
500.121	1521.84071
500.331	1692.49894
500.54	2039.71516
500.75	1675.90642
500.96	1574.8803
501.17	1455.19415
501.38	1620.28019
501.59	1701.93344
501.8	1414.63701
502.01	1115.57119
502.219	1561.886
502.429	1752.18605
502.639	1903.78472
502.849	1806.52694
503.059	1486.75937
503.268	1535.99054
503.478	1407.02187
503.688	1631.07836
503.898	1508.51923
504.107	1529.54042
504.317	1945.38309
504.527	1721.72968
504.736	1687.31438
504.946	1486.75937
505.156	1689.28458
505.365	1428.29922
505.575	1460.61286
505.785	1488.11316
505.994	1717.99905
506.204	1400.8662
506.413	1445.18864
506.623	1187.78987
506.832	1418.70483
507.042	1543.16784
507.251	1687.41808
507.461	1537.65494
507.67	1532.7656
507.88	1375.60841
508.089	1444.35474
508.299	1502.27345
508.508	1514.45193
508.718	1180.44804
508.927	1278.50903
509.137	1707.32377
509.346	1613.32239
509.555	1400.24015
509.765	1380.20183
509.974	2333.90689
510.184	1572.07383
510.393	1401.59658
510.602	1440.28929
510.812	1715.82273
511.021	1473.21925
511.23	1886.7439
511.439	1295.87581
511.649	1395.02273
511.858	1555.12754
512.067	1535.99054
512.276	1568.33162
512.486	2432.04473
512.695	1520.38386
512.904	1159.04414
513.113	1459.04984
513.322	1480.61475
513.531	1487.59248
513.741	1671.13503
513.95	1174.4687
514.159	1522.56912
514.368	1210.43621
514.577	1351.48493
514.786	1338.42543
514.995	1379.15792
515.204	1448.52406
515.413	1221.9642
515.622	1216.51501
515.831	1332.46897
516.04	1334.66355
516.249	1153.79633
516.458	1244.59147
516.667	1474.46928
516.876	1614.67249
517.085	1319.50816
517.294	1638.03358
517.503	1380.82817
517.712	1364.12273
517.921	1497.2762
518.13	1450.60857
518.339	1557.93502
518.547	1872.48742
518.756	1231.60327
518.965	1407.02187
519.174	1457.38255
519.383	1406.29158
519.591	1176.35701
519.8	1100.96437
520.009	1352.73843
520.218	1252.75936
520.426	1377.2788
520.635	1509.56011
520.844	1379.78427
521.053	1472.49005
521.261	1572.59356
521.47	1416.30591
521.679	1491.34126
521.887	1413.48961
522.096	1307.69365
522.304	1224.68851
522.513	1110.10741
522.722	1172.26555
522.93	1579.86915
523.139	1387.61291
523.347	1158.09959
523.556	1197.64679
523.764	1315.74461
523.973	1240.40218
524.182	1154.11122
524.39	1475.71927
524.598	1245.42928
524.807	1068.36814
525.015	1370.49244
525.224	1407.9608
525.432	1368.29969
525.641	1088.7703
525.849	1257.26148
526.057	1344.1721
526.266	1563.65344
526.474	1125.44609
526.683	1241.65901
526.891	1398.67499
527.099	1240.92587
527.308	1345.32134
527.516	1071.94456
527.724	1402.32695
527.932	1190.62136
528.141	1530.89294
528.349	1718.41358
528.557	1359.31871
528.765	1162.92708
528.974	1155.47571
529.182	1206.97718
529.39	1343.23179
529.598	1175.30796
529.806	1058.47865
530.015	1352.11168
530.223	1150.64731
530.431	1124.71081
530.639	1052.05964
530.847	1150.85725
531.055	1330.06525
531.263	1349.39568
531.471	946.04012
531.679	1014.47081
531.887	1355.55867
532.095	1417.34893
532.303	1497.38032
532.511	1282.79909
532.719	1224.89807
532.927	1290.43639
533.135	1408.8997
533.343	1645.09159
533.551	1387.61291
533.759	1305.70681
533.967	1609.89504
534.175	1424.12801
534.383	1701.10411
534.591	1624.43362
534.798	1506.02102
535.006	1235.16496
535.214	1308.94844
535.422	1251.29345
535.63	1431.42738
535.837	1104.53777
536.045	1159.67383
536.253	1280.07862
536.461	1309.26214
536.668	1326.72071
536.876	1530.06063
537.084	1661.59085
537.292	1530.26871
537.499	1666.05195
537.707	1478.01084
537.915	1582.15553
538.122	1701.20777
538.33	1641.45892
538.538	1482.28117
538.745	1618.82641
538.953	1677.56592
539.16	1573.32117
539.368	1356.28982
539.575	1281.64814
539.783	1366.73338
539.99	1722.35142
540.198	1467.28115
540.406	1401.07488
540.613	1351.79831
540.82	1301.31452
541.028	1532.03735
541.235	1496.96386
541.443	1706.70184
541.65	1916.2779
541.858	1600.54646
542.065	1401.70092
542.272	1287.40256
542.48	1870.93757
542.687	1360.98974
542.895	1689.90673
543.102	1388.761
543.309	1515.70082
543.516	1569.2672
543.724	1529.74851
543.931	1364.0183
544.138	1659.10076
544.346	1401.9096
544.553	1483.73924
544.76	1403.16164
544.967	1347.30632
545.174	1516.22118
545.382	1399.30106
545.589	1536.82275
545.796	1635.8537
546.003	1207.29165
546.21	1523.19346
546.417	1844.16972
546.624	1607.50613
546.832	1535.47041
547.039	1573.00934
547.246	1828.04043
547.453	1580.49272
547.66	1320.23993
547.867	1580.38879
548.074	1516.42933
548.281	1385.83854
548.488	1402.7443
548.695	1355.97647
548.902	1454.36044
549.109	1364.54044
549.316	1190.62136
549.523	1230.97471
549.73	1362.03409
549.936	1426.5265
550.143	1260.4022
550.35	1191.04082
550.557	1209.0736
550.764	1193.34779
550.971	1532.24542
551.178	1351.79831
551.384	1587.9749
551.591	1568.95534
551.798	1627.54846
552.005	1346.6795
552.211	1552.1119
552.418	1443.41659
552.625	1142.24869
552.832	1550.864
553.038	1507.99878
553.245	1576.2315
553.452	1614.56864
553.658	1321.59888
553.865	1276.31151
554.072	1454.25623
554.278	1468.84388
554.485	1839.51755
554.691	1777.86285
554.898	1405.76994
555.105	1688.66242
555.311	1442.06145
555.518	1702.14077
555.724	1611.34909
555.931	1154.11122
556.137	1252.75936
556.344	1486.96765
556.55	1476.86507
556.757	1520.2798
556.963	1448.62828
557.17	1540.25545
557.376	1570.30672
557.582	1771.54839
557.789	1320.23993
557.995	1322.74874
558.202	1370.49244
558.408	1433.09564
558.614	1272.33476
558.821	1466.34348
559.027	1589.014
559.233	1537.0308
559.439	1885.60766
559.646	1519.96761
559.852	1733.12708
560.058	1709.50047
560.264	1614.36093
560.471	1521.21635
560.677	1702.03711
560.883	1770.20258
561.089	1727.94677
561.295	1442.58267
561.502	1588.59836
561.708	1444.98016
561.914	1637.82598
562.12	1580.90842
562.326	1687.41808
562.532	1641.04374
562.738	1733.64509
562.944	1447.586
563.15	1586.20838
563.356	1289.91333
563.562	1558.55888
563.768	1624.64128
563.974	1331.84192
564.18	1613.63395
564.386	1530.16467
564.592	1408.16944
564.798	1395.64885
565.004	1794.21472
565.21	1245.21983
565.416	1661.4871
565.622	1634.08895
565.828	1665.32575
566.034	1846.96082
566.239	1590.05308
566.445	1952.08954
566.651	1907.08898
566.857	2174.81005
567.063	1950.33563
567.268	2151.88714
567.474	2269.39249
567.68	2128.02984
567.886	2422.52401
568.091	2683.4243
568.297	2406.75562
568.503	2578.58304
568.708	2737.06597
568.914	2986.66451
569.12	2955.0463
569.325	2733.49778
569.531	2770.5992
569.737	2239.11294
569.942	2445.55574
570.148	2883.22827
570.353	3404.97384
570.559	3342.59663
570.765	2973.04258
570.97	3183.75906
571.176	3605.45262
571.381	2908.05587
571.587	2361.58033
571.792	2535.05164
571.998	2521.55775
572.203	2635.054
572.408	3541.56128
572.614	3884.32333
572.819	3591.10005
573.025	3216.41782
573.23	3076.57995
573.435	3149.46623
573.641	3235.68369
573.846	2863.89038
574.051	3216.51923
574.257	3464.99025
574.462	3371.05542
574.667	3183.96194
574.873	3026.50212
575.078	3644.45941
575.283	3331.7581
575.488	3779.98696
575.694	4043.31878
575.899	3291.33214
576.104	3482.19003
576.309	3661.12981
576.514	3642.43861
576.719	4585.44049
576.925	5237.70456
577.13	4646.54629
577.335	4273.24078
577.54	3906.7151
577.745	3216.82346
577.95	3494.93654
578.155	3226.1526
578.36	3011.86989
578.565	3185.68642
578.77	4113.24185
578.975	4371.15109
579.18	3735.26321
579.385	4090.97825
579.59	4658.20307
579.795	3756.76869
580	3127.13914
580.205	3370.34657
580.41	4780.67112
580.615	6834.11319
580.82	7197.11325
581.024	5977.38033
581.229	5705.63321
581.434	5301.50725
581.639	4271.42906
581.844	3589.98817
582.049	3237.20452
582.253	3656.68457
582.458	3193.29406
582.663	2611.98059
582.868	2646.79221
583.072	2759.69478
583.277	3465.7997
583.482	4057.93035
583.686	4142.04954
583.891	3843.76784
584.096	4084.53036
584.3	4509.13863
584.505	3649.9154
584.71	3950.78341
584.914	4074.05204
585.119	3874.23589
585.323	3580.99166
585.528	2823.16468
585.733	3118.10538
585.937	3306.32898
586.142	2813.79498
586.346	3765.75359
586.551	3575.22952
586.755	3614.14425
586.959	4626.04523
587.164	4390.76808
587.368	3703.15034
587.573	4273.44208
587.777	6186.24217
587.982	18552.40889
588.186	38518.80421
588.39	19039.1124
588.595	12967.63363
588.799	23039.79395
589.003	11297.79552
589.208	4678.09886
589.412	3799.46725
589.616	3379.15626
589.82	3317.47394
590.025	2649.24169
590.229	2682.50616
590.433	2510.61766
590.637	2605.34312
590.842	3254.43915
591.046	3637.89171
591.25	3082.26663
591.454	2333.08676
591.658	2768.96873
591.862	4130.36584
592.067	5906.81832
592.271	5132.25098
592.475	4045.03192
592.679	4371.45291
592.883	3850.32604
593.087	4073.44751
593.291	3363.96671
593.495	3042.5543
593.699	2800.04406
593.903	3751.21594
594.107	4720.09652
594.311	4663.42836
594.515	4224.21795
594.719	3628.29219
594.923	3382.09267
595.127	3861.72656
595.33	3421.8787
595.534	2752.45833
595.738	3602.31945
595.942	3441.21
596.146	2833.34794
596.35	3439.99556
596.553	3103.28416
596.757	3485.73086
596.961	4360.98982
597.165	3513.64923
597.369	2623.62027
597.572	2855.645
597.776	2785.78143
597.98	3913.97662
598.183	4457.5537
598.387	4063.0693
598.591	3234.467
598.794	3141.04342
598.998	3339.5579
599.202	3773.02187
599.405	4146.07823
599.609	3875.9508
599.812	4288.23719
600.016	4129.05642
600.22	4550.35856
600.423	4503.91025
600.627	4117.87556
600.83	3320.61459
601.034	4232.07046
601.237	4645.1394
601.441	2976.90572
601.644	3255.55424
601.847	3974.67816
602.051	3737.28264
602.254	3442.12082
602.458	3964.99969
602.661	4542.51724
602.864	3731.32523
603.068	3472.37634
603.271	3045.80504
603.475	2932.97813
603.678	3218.95301
603.881	3050.98567
604.084	2563.87109
604.288	2805.23912
604.491	3772.71903
604.694	3732.53693
604.897	2786.08708
605.101	3039.91299
605.304	3336.82297
605.507	2800.24779
605.71	2471.85374
605.913	3414.6919
606.116	3556.62715
606.32	3364.87814
606.523	3152.61192
606.726	3000.99583
606.929	3226.5582
607.132	3347.15457
607.335	3622.22897
607.538	2908.56455
607.741	2729.41966
607.944	2399.79179
608.147	2406.4484
608.35	2694.03315
608.553	2597.7859
608.756	2770.7011
608.959	2989.40898
609.162	3705.87719
609.365	3462.35947
609.568	3281.19797
609.771	2388.93497
609.973	3183.55618
610.176	3123.28213
610.379	2644.54678
610.582	2607.79394
610.785	3113.74046
610.988	2963.18065
611.19	2368.75304
611.393	2502.84612
611.596	2270.0082
611.799	2328.88343
612.001	2946.9112
612.204	2393.23694
612.407	2468.37519
612.609	2726.87073
612.812	2972.94091
613.015	2887.50238
613.217	2821.33156
613.42	2389.75442
613.623	2484.12957
613.825	2993.47471
614.028	3138.81074
614.23	2582.26057
614.433	2368.75304
614.636	2650.36435
614.838	3114.75557
615.041	3316.96738
615.243	2055.16445
615.446	1878.58305
615.648	1830.31537
615.85	2209.12694
616.053	1717.79179
616.255	2431.43053
616.458	2144.17569
616.66	2013.64789
616.863	1796.18074
617.065	2051.55999
617.267	2323.03932
617.47	2111.46809
617.672	1962.61187
617.874	1868.66438
618.077	1926.8071
618.279	2176.65996
618.481	2377.46173
618.683	1729.60453
618.886	1667.40057
619.088	2742.06116
619.29	2561.72536
619.492	1851.61234
619.694	1911.52876
619.897	2158.6724
620.099	1697.4756
620.301	1205.92893
620.503	1220.70676
620.705	1700.68943
620.907	1753.53233
621.109	1668.12674
621.311	1950.33563
621.513	2200.18995
621.715	2180.97618
621.917	2252.66355
622.119	2147.36321
622.321	2082.75692
622.523	2156.20512
622.725	1738.72122
622.927	1661.79835
623.129	1788.93716
623.331	1764.92254
623.533	1616.1264
623.735	1945.58946
623.937	2074.41879
624.139	1612.59539
624.341	1675.8027
624.542	1275.05574
624.744	1399.50975
624.946	1718.20632
625.148	1593.89746
625.35	1816.35392
625.551	1473.84427
625.753	1198.17102
625.955	1493.52791
626.156	1629.83254
626.358	1738.09968
626.56	1572.38567
626.762	1956.52567
626.963	1738.51404
627.165	1519.34323
627.366	1713.6463
627.568	1685.1367
627.77	1532.24542
627.971	1807.6649
628.173	1644.9878
628.374	1484.78069
628.576	1529.2283
628.777	2048.26428
628.979	1298.69984
629.18	1200.2679
629.382	1213.68534
629.583	1653.39381
629.785	1574.04877
629.986	1246.05762
630.188	1309.78495
630.389	1350.96262
630.591	1515.90897
630.792	1138.67874
630.993	1006.3585
631.195	1203.20335
631.396	1165.97019
631.597	1213.58053
631.799	1216.20061
632	1480.19813
632.201	1225.63151
632.402	1507.47833
632.604	1566.35645
632.805	1277.98582
633.006	1428.92487
633.207	1577.68659
633.409	1581.42805
633.61	1264.3801
633.811	1351.17155
634.012	1501.2324
634.213	1365.48029
634.414	1485.71797
634.615	1364.0183
634.816	1697.0609
635.017	1542.12772
635.219	1584.4418
635.42	1490.29996
635.621	1476.44842
635.822	1837.96673
636.023	1574.15271
636.224	1507.47833
636.425	1397.00542
636.626	1264.69413
636.826	1207.60611
637.027	1545.04
637.228	1308.21648
637.429	1108.42609
637.63	1277.25332
637.831	1011.41573
638.032	1152.01192
638.233	961.55093
638.433	1059.42563
638.634	1266.89226
638.835	1141.40873
639.036	1302.25576
639.237	858.12576
639.437	795.12059
639.638	1071.20826
639.839	1118.93314
640.039	898.51696
640.24	1211.69397
640.441	1018.78964
640.641	783.77814
640.842	1162.50732
641.043	1017.63098
641.243	891.01315
641.444	972.41515
641.645	1234.22219
641.845	934.53466
642.046	1004.14574
642.246	950.57797
642.447	691.52061
642.647	991.07728
642.848	1344.27658
643.048	1268.67162
643.249	1104.22248
643.449	980.21854
643.65	866.69421
643.85	793.84872
644.05	1172.89504
644.251	842.5703
644.451	1019.84293
644.651	979.26957
644.852	978.84779
645.052	920.49096
645.252	948.67847
645.453	742.61707
645.653	865.74226
645.853	748.98543
646.054	858.97212
646.254	851.0367
646.454	651.31084
646.654	704.80679
646.854	887.73635
647.055	1115.46613
647.255	771.37138
647.455	1313.6536
647.655	1017.31497
647.855	1206.03375
648.055	1042.79751
648.255	807.62477
648.455	1101.06948
648.655	1063.63413
648.856	1153.90129
649.056	1062.47684
649.256	1140.25376
649.456	983.38161
649.656	1015.84025
649.856	1096.65484
650.055	1061.31951
650.255	1376.23482
650.455	1370.91009
650.655	1375.0864
650.855	1792.66256
651.055	2263.9535
651.255	2476.96893
651.455	2495.38055
651.655	1957.66044
651.854	1876.4135
652.054	1457.17414
652.254	1804.97514
652.454	2298.93967
652.654	2333.59934
652.853	3535.69622
653.053	4815.52373
653.253	8747.91474
653.452	20911.2532
653.652	62995.76925
653.852	62995.76925
654.051	62995.76925
654.251	62995.76925
654.451	62995.76925
654.65	62995.76925
654.85	62995.76925
655.049	62995.76925
655.249	62995.76925
655.449	62995.76925
655.648	62995.76925
655.848	62995.76925
656.047	62995.76925
656.247	62995.76925
656.446	62995.76925
656.645	62995.76925
656.845	62995.76925
657.044	62995.76925
657.244	62995.76925
657.443	62995.76925
657.643	62995.76925
657.842	62995.76925
658.041	62995.76925
658.241	62995.76925
658.44	62995.76925
658.639	62995.76925
658.839	62995.76925
659.038	62995.76925
659.237	62995.76925
659.436	62995.76925
659.636	62995.76925
659.835	62995.76925
660.034	62995.76925
660.233	62995.76925
660.432	62995.76925
660.631	62995.76925
660.831	62995.76925
661.03	62995.76925
661.229	62995.76925
661.428	62995.76925
661.627	62995.76925
661.826	62995.76925
662.025	62995.76925
662.224	62995.76925
662.423	62995.76925
662.622	62995.76925
662.821	62995.76925
663.02	61443.1059
663.219	62995.76925
663.418	3570.98356
663.617	5304.21567
663.816	2662.91655
664.015	2591.76001
664.214	2002.61979
664.412	2165.14854
664.611	1968.49112
664.81	2011.89591
665.009	2027.97091
665.208	1827.31656
665.406	1292.21474
665.605	1720.5898
665.804	1352.52951
666.003	1556.58329
666.201	1113.25969
666.4	1244.27729
666.599	1245.534
666.798	1198.06618
666.996	1176.77662
667.195	1017.1043
667.394	950.05034
667.592	1394.81402
667.791	1030.26899
667.989	1325.15287
668.188	1093.60634
668.386	1401.3879
668.585	1016.57762
668.783	1192.40405
668.982	1213.58053
669.18	1327.24331
669.379	1058.58387
669.577	870.71327
669.776	825.31369
669.974	1196.49344
670.173	966.71974
670.371	940.44617
670.57	845.21627
670.768	1010.99432
670.966	1154.21618
671.165	1207.18682
671.363	1032.69079
671.561	1080.88415
671.76	1311.14425
671.958	1422.35512
672.156	1064.89659
672.354	873.99163
672.553	869.5499
672.751	607.3216
672.949	777.31022
673.147	1065.2122
673.345	678.22913
673.543	1096.23437
673.742	584.71797
673.94	739.43244
674.138	744.42156
674.336	777.5223
674.534	734.44259
674.732	1129.85747
674.93	862.56892
675.128	622.45293
675.326	680.56882
675.524	709.37602
675.722	955.85384
675.92	702.25626
676.118	594.95554
676.316	788.12475
676.514	779.11287
676.712	588.77073
676.91	757.15641
677.108	772.96224
677.305	989.3907
677.503	812.70993
677.701	833.67838
677.899	651.41728
678.097	799.88966
678.295	652.37523
678.492	556.65452
678.69	986.64983
678.888	679.07995
679.085	1111.47343
679.283	712.77597
679.481	479.05698
679.679	629.58992
679.876	653.01384
680.074	728.0715
680.271	626.07488
680.469	538.28784
680.667	791.51685
680.864	738.79548
681.062	931.89528
681.259	787.17066
681.457	457.11076
681.654	820.75991
681.852	542.02611
682.049	616.27338
682.247	521.19296
682.444	565.30027
682.642	771.37138
682.839	499.27653
683.037	688.1185
683.234	909.92821
683.431	723.82344
683.629	439.75681
683.826	543.84168
684.023	774.65908
684.221	940.55173
684.418	974.31342
684.615	1105.37852
684.813	1044.16592
685.01	1058.47865
685.207	718.72506
685.404	482.90934
685.601	930.20598
685.799	1014.26012
685.996	723.3986
686.193	669.61341
686.39	457.32495
686.587	748.45478
686.784	783.35405
686.981	865.00184
687.179	741.44941
687.376	457.64622
687.573	611.69123
687.77	774.55303
687.967	499.06263
688.164	649.71421
688.361	491.68237
688.558	648.96908
688.755	487.72411
688.952	933.58451
689.148	668.76235
689.345	543.73489
689.542	620.96143
689.739	589.19731
689.936	514.35241
690.133	802.85676
690.33	500.34598
690.526	722.97376
690.723	1101.06948
690.92	877.16396
691.117	517.77287
691.314	484.19335
691.51	444.68548
691.707	570.10245
691.904	504.83727
692.1	964.08268
692.297	486.22626
692.494	524.07837
692.69	1096.02413
692.887	833.89012
693.084	672.59194
693.28	526.96352
693.477	555.37347
693.673	640.45218
693.87	589.09067
694.066	465.03462
694.263	485.79829
694.459	533.90816
694.656	534.76278
694.852	671.10271
695.049	568.28837
695.245	770.31076
695.442	571.91641
695.638	339.29399
695.834	494.46354
696.031	711.28854
696.227	680.35613
696.423	883.29632
696.62	852.83555
696.816	915.94936
697.012	511.78681
697.209	686.62997
697.405	803.59849
697.601	878.75002
697.797	539.35596
697.994	574.58383
698.19	350.04333
698.386	784.52028
698.582	782.29381
698.778	486.11927
698.974	343.1642
699.17	424.75161
699.367	582.58473
699.563	893.33844
699.759	339.50901
699.955	560.6041
700.151	510.18321
700.347	543.09411
700.543	671.31546
700.739	963.55525
700.935	490.50564
701.131	438.36378
701.327	458.50294
701.523	850.19016
701.718	474.45492
701.914	667.48573
702.11	778.9008
702.306	805.08191
702.502	545.97751
702.698	316.70759
702.894	509.75557
703.089	492.85905
703.285	491.68237
703.481	492.53814
703.677	644.1786
703.872	466.21231
704.068	446.50674
704.264	392.46526
704.459	204.59098
704.655	322.62475
704.851	339.18647
705.046	229.7476
705.242	180.16868
705.438	177.57392
705.633	386.56201
705.829	403.08817
706.024	534.01499
706.22	779.00684
706.415	632.89158
706.611	629.48341
706.806	815.78185
707.002	576.18417
707.197	625.11617
707.393	639.06798
707.588	422.71462
707.784	675.88928
707.979	399.54761
708.174	361.8631
708.37	414.45805
708.565	525.25384
708.76	449.61335
708.956	534.4423
709.151	443.29267
709.346	416.06665
709.542	294.21143
709.737	353.91214
709.932	654.29102
710.127	638.64206
710.322	386.23999
710.518	449.29199
710.713	305.30022
710.908	244.74459
711.103	427.00286
711.298	632.57208
711.493	332.30481
711.688	367.01935
711.883	385.70326
712.078	819.27716
712.273	743.36011
712.468	279.7789
712.663	495.961
712.858	618.61749
713.053	506.86884
713.248	573.3035
713.443	479.16399
713.638	372.0673
713.833	305.30022
714.028	508.90027
714.223	817.58251
714.418	985.06847
714.613	433.75562
714.807	879.27869
715.002	410.38254
715.197	466.10525
715.392	120.96936
715.587	359.60696
715.781	508.90027
715.976	325.95936
716.171	698.00493
716.365	501.52233
716.56	613.18317
716.755	236.76156
716.949	429.89708
717.144	508.68644
717.339	372.38949
717.533	539.03553
717.728	723.18618
717.922	266.74034
718.117	258.87125
718.312	569.67561
718.506	431.50486
718.701	866.05958
718.895	942.135
719.089	646.41425
719.284	541.27849
719.478	419.17636
719.673	143.60342
719.867	637.57723
720.062	487.08218
720.256	418.74746
720.45	342.4117
720.645	267.92591
720.839	554.62617
721.033	612.54377
721.228	262.10538
721.422	570.74268
721.616	339.93906
721.81	515.84891
722.005	530.80997
722.199	678.33549
722.393	351.9778
722.587	315.09361
722.781	576.29086
722.975	658.01587
723.169	498.74179
723.364	542.23971
723.558	307.13001
723.752	469.74513
723.946	760.65766
724.14	487.51014
724.334	476.70252
724.528	502.48477
724.722	361.8631
724.916	757.47472
725.11	514.13861
725.304	560.6041
725.498	671.20908
725.692	497.56533
725.885	597.72766
726.079	867.85767
726.273	470.49446
726.467	396.43587
726.661	370.24155
726.855	574.79721
727.048	725.09791
727.242	389.46011
727.436	551.74354
727.63	399.65491
727.823	632.25257
728.017	264.47685
728.211	445.43542
728.405	668.12405
728.598	449.50623
728.792	462.57202
728.986	669.29427
729.179	568.71522
729.373	416.71006
729.566	566.90107
729.76	597.30119
729.953	468.46051
730.147	734.65494
730.34	615.5275
730.534	1130.59265
730.727	696.51684
730.921	685.67302
731.114	706.71957
731.308	522.04793
731.501	558.89624
731.695	448.32789
731.888	535.7242
732.081	430.96895
732.275	521.94106
732.468	565.62043
732.661	633.31757
732.855	348.86109
733.048	392.6799
733.241	220.35697
733.434	792.57681
733.628	705.7632
733.821	808.47235
734.014	639.70685
734.207	766.28013
734.4	388.49411
734.594	513.92482
734.787	634.16955
734.98	601.35237
735.173	629.05736
735.366	378.72501
735.559	668.54959
735.752	334.24044
735.945	208.3713
736.138	335.20821
736.331	516.16957
736.524	779.64305
736.717	493.92872
736.91	572.98341
737.103	551.10293
737.296	459.78797
737.489	581.83807
737.682	145.98488
737.875	262.10538
738.067	557.82877
738.26	590.05045
738.453	646.62716
738.646	569.24878
738.839	601.99198
739.031	572.87671
739.224	475.95334
739.417	674.0811
739.61	811.96839
739.802	418.533
739.995	246.79393
740.188	741.13095
740.38	452.39832
740.573	480.02011
740.765	382.8048
740.958	67.07043
741.151	653.43957
741.343	190.65342
741.536	275.03828
741.728	307.99104
741.921	472.10011
742.113	240.42972
742.306	297.33395
742.498	387.52808
742.691	494.78443
742.883	312.08061
743.076	328.75583
743.268	233.52456
743.46	627.56616
743.653	283.22612
743.845	558.04227
744.037	434.72017
744.23	336.17594
744.422	413.81458
744.614	327.46518
744.807	342.6267
744.999	469.74513
745.191	456.5753
745.383	489.32887
745.575	283.33384
745.768	480.66218
745.96	419.39082
746.152	542.98731
746.344	288.7193
746.536	674.82566
746.728	558.576
746.92	594.31579
747.112	375.50372
747.304	498.63484
747.496	398.68923
747.688	318.64425
747.88	99.29248
748.072	695.13498
748.264	343.80919
748.456	351.11805
748.648	323.05505
748.84	394.39697
749.032	301.2097
749.224	589.19731
749.416	563.59265
749.608	667.91128
749.799	494.78443
749.991	535.19008
750.183	638.10965
750.375	295.07285
750.567	417.24623
750.758	190.22114
750.95	426.14526
751.142	354.0196
751.333	299.05657
751.525	460.75171
751.717	561.88494
751.908	852.30649
752.1	342.4117
752.292	414.13632
752.483	400.83514
752.675	393.75308
752.866	505.37191
753.058	887.94776
753.249	564.12629
753.441	580.45135
753.632	288.0731
753.824	307.13001
754.015	337.57373
754.207	702.78763
754.398	610.3058
754.589	352.94498
754.781	329.72377
754.972	390.21143
755.164	451.54143
755.355	440.07827
755.546	501.20151
755.738	374.96681
755.929	444.36406
756.12	791.30485
756.311	791.72884
756.503	517.66599
756.694	584.71797
756.885	568.71522
757.076	958.38599
757.267	992.02595
757.458	761.71857
757.65	691.30799
757.841	565.19354
758.032	893.44413
758.223	736.45985
758.414	790.98686
758.605	747.60572
758.796	424.42999
758.987	767.87122
759.178	463.96394
759.369	216.79419
759.56	486.76122
759.751	419.60527
759.942	583.65137
760.133	330.26151
760.324	532.19885
760.514	489.32887
760.705	734.54877
760.896	357.99533
761.087	623.30519
761.278	337.57373
761.468	250.56864
761.659	563.059
761.85	588.87738
762.041	188.05962
762.231	655.78101
762.422	323.80804
762.613	724.7793
762.803	400.29868
762.994	912.78046
763.185	299.81018
763.375	542.23971
763.566	393.21649
763.757	417.67516
763.947	423.57232
764.138	598.36734
764.328	718.30016
764.519	790.03285
764.709	503.98184
764.9	540.53086
765.09	482.1603
765.281	450.47029
765.471	322.8399
765.661	344.66915
765.852	375.6111
766.042	472.95643
766.232	157.88907
766.423	333.59525
766.613	446.39961
766.803	389.56745
766.994	529.52787
767.184	445.86395
767.374	798.9359
767.564	767.23479
767.755	512.42823
767.945	266.84812
768.135	403.41002
768.325	771.15926
768.515	570.42256
768.706	477.34466
768.896	580.87804
769.086	664.50674
769.276	552.06385
769.466	408.98817
769.656	416.28112
769.846	465.78406
770.036	620.85489
770.226	539.67639
770.416	443.82837
770.606	598.0475
770.796	807.20097
770.986	549.6081
771.176	406.52104
771.366	532.19885
771.555	539.03553
771.745	289.15009
771.935	510.50394
772.125	370.67115
772.315	360.46646
772.504	644.28506
772.694	241.72425
772.884	636.51237
773.074	155.72505
773.263	462.35787
773.453	396.32857
773.643	738.26467
773.832	564.23302
774.022	666.63462
774.212	360.25159
774.401	258.44001
774.591	84.32538
774.781	218.62962
774.97	502.59171
775.16	288.5039
775.349	206.64322
775.539	278.16287
775.728	205.34708
775.918	474.88305
776.107	937.49054
776.297	1639.59059
776.486	3191.97544
776.675	3801.08208
776.865	2791.07927
777.054	1209.17842
777.243	698.96152
777.433	675.99564
777.622	613.60942
777.811	573.0901
778.001	624.37049
778.19	371.31554
778.379	245.82321
778.568	540.10363
778.758	338.43387
778.947	448.43502
779.136	527.28408
779.325	542.34651
779.514	167.08427
779.703	680.78151
779.892	216.14636
780.082	381.40914
780.271	209.55929
780.46	489.75679
780.649	562.09841
780.838	417.56793
781.027	229.85552
781.216	205.34708
781.405	179.73624
781.594	550.67584
781.783	650.03354
781.971	752.59363
782.16	358.31766
782.349	828.06685
782.538	231.47427
782.727	663.01715
782.916	271.69784
783.105	663.86835
783.293	334.34797
783.482	714.36958
783.671	527.60463
783.86	436.54203
784.048	268.57256
784.237	96.6901
784.426	277.40869
784.614	391.714
784.803	388.81612
784.992	74.88536
785.18	310.14352
785.369	483.33735
785.557	346.92642
785.746	487.18917
785.935	445.97108
786.123	334.56303
786.312	113.16766
786.5	498.10009
786.689	360.35903
786.877	430.32583
787.065	554.73292
787.254	-6.8499
787.442	173.03249
787.631	381.19442
787.819	495.10532
788.007	565.72716
788.196	548.75388
788.384	650.99152
788.572	713.20094
788.761	198.43337
788.949	234.3878
789.137	381.08706
789.325	368.63049
789.513	254.01937
789.702	403.30273
789.89	528.24572
790.078	255.42111
790.266	219.4933
790.454	318.42907
790.642	270.2969
790.83	624.15743
791.018	402.1226
791.207	309.60541
791.395	557.40178
791.583	214.74269
791.771	585.25126
791.959	272.12889
792.146	282.14891
792.334	166.97611
792.522	324.66859
792.71	332.51989
792.898	367.01935
793.086	599.32685
793.274	288.5039
793.462	688.86274
793.65	671.63458
793.837	226.186
794.025	580.45135
794.213	147.28377
794.401	628.73782
794.588	301.10205
794.776	144.90242
794.964	127.68571
795.151	504.83727
795.339	438.68525
795.527	303.03974
795.714	90.39998
795.902	337.57373
796.089	234.71151
796.277	137.54062
796.465	609.98608
796.652	426.03806
796.84	221.97626
797.027	420.89193
797.215	261.13518
797.402	605.08327
797.59	638.10965
797.777	274.28402
797.964	101.89461
798.152	233.52456
798.339	581.41139
798.526	135.59158
798.714	168.16586
798.901	280.8562
799.088	510.93157
799.276	299.27189
799.463	292.48852
799.65	218.84554
799.837	330.58415
800.025	135.15844
800.212	431.61205
800.399	355.20163
800.586	229.53176
800.773	238.81147
800.96	139.05644
801.148	536.79241
801.335	447.04238
801.522	566.68764
801.709	135.05015
801.896	468.35346
802.083	256.71496
802.27	209.3433
802.457	308.95967
802.644	246.14679
802.831	272.99096
803.018	246.3625
803.204	212.36709
803.391	365.19328
803.578	229.96344
803.765	260.16495
803.952	515.52823
804.139	269.43474
804.326	405.34103
804.512	316.81518
804.699	544.37565
804.886	234.71151
805.073	155.29223
805.259	291.62703
805.446	950.89455
805.633	454.75463
805.819	593.88928
806.006	569.67561
806.192	379.15448
806.379	164.92097
806.566	181.68219
806.752	418.10408
806.939	226.29393
807.125	80.96207
807.312	321.65657
807.498	458.28876
807.685	466.10525
807.871	256.28368
808.058	460.32338
808.244	451.86277
808.43	503.44718
808.617	431.61205
808.803	441.68551
808.99	272.66769
809.176	317.13797
809.362	272.99096
809.549	312.61867
809.735	337.78877
809.921	78.46644
810.107	421.32081
810.293	260.38056
810.48	455.93272
810.666	360.89621
810.852	410.70431
811.038	288.2885
811.224	271.37455
811.41	377.43654
811.597	626.60749
811.783	70.97818
811.969	254.34285
812.155	51.54239
812.341	355.63144
812.527	370.45635
812.713	401.69345
812.899	220.68083
813.085	267.71035
813.271	388.1721
813.456	483.76535
813.642	116.85207
813.828	253.48022
814.014	575.43735
814.2	350.25828
814.386	303.79326
814.572	58.6017
814.757	426.57406
814.943	696.30425
815.129	399.22572
815.315	341.33666
815.5	285.70357
815.686	546.93859
815.872	65.5506
816.057	154.31835
816.243	583.97135
816.429	232.6613
816.614	247.00964
816.8	267.60258
816.985	290.22705
817.171	375.82587
817.356	429.14676
817.542	421.21359
817.727	494.78443
817.913	112.73417
818.098	230.17928
818.284	195.51614
818.469	242.04787
818.655	259.73372
818.84	476.70252
819.025	141.00524
819.211	538.92872
819.396	602.63158
819.581	132.99264
819.767	190.11307
819.952	407.05739
820.137	479.80608
820.322	483.23034
820.508	835.90157
820.693	434.39866
820.878	353.48229
821.063	407.27192
821.248	566.15404
821.433	143.60342
821.618	394.28966
821.804	203.83485
821.989	195.30004
822.174	421.42803
822.359	650.13999
822.544	43.06877
822.729	442.43553
822.914	54.47495
823.099	221.0047
823.284	207.83128
823.469	258.00875
823.653	417.99685
823.838	376.47014
824.023	228.12875
824.208	196.38054
824.393	464.49928
824.578	379.26185
824.762	3.05431
824.947	194.75978
825.132	330.15396
825.317	276.54675
825.501	362.72254
825.686	332.51989
825.871	199.40572
826.056	400.40597
826.24	394.07503
826.425	524.8264
826.609	82.69803
826.794	110.02468
826.979	315.63161
827.163	280.96393
827.348	152.37049
827.532	147.28377
827.717	238.27204
827.901	300.56378
828.086	365.40812
828.27	188.05962
828.455	401.69345
828.639	485.04933
828.823	395.4701
829.008	116.63536
829.192	190.65342
829.376	381.83858
829.561	141.43829
829.745	209.0193
829.929	-1.73407
830.114	374.53727
830.298	688.75642
830.482	257.14623
830.666	435.04168
830.85	234.81941
831.035	306.59185
831.219	31.76643
831.403	74.45125
831.587	74.99388
831.771	574.9039
831.955	324.66859
832.139	196.38054
832.323	400.40597
832.507	46.00225
832.691	229.42383
832.875	-6.8499
833.059	119.77758
833.243	8.05941
833.427	209.55929
833.611	210.53125
833.795	93.65367
833.979	369.59713
834.163	129.31039
834.346	436.43487
834.53	325.52911
834.714	383.01951
834.898	259.94934
835.082	204.26693
835.265	415.95941
835.449	155.29223
835.633	27.4181
835.816	265.55473
836	113.49278
836.184	341.76668
836.367	468.99578
836.551	421.21359
836.735	518.84169
836.918	5.66578
837.102	311.43493
837.285	235.57471
837.469	253.91154
837.652	464.71342
837.836	181.24977
838.019	132.55946
838.203	345.09912
838.386	131.80138
838.569	141.65481
838.753	686.09833
838.936	124.11109
839.12	211.39519
839.303	336.06842
839.486	347.78629
839.669	104.82172
839.853	219.60126
840.036	245.28391
840.219	229.7476
840.402	21.65547
840.586	294.8575
840.769	341.65918
840.952	1.85729
841.135	518.52105
841.318	173.14063
841.501	146.52609
841.684	0.9867
841.868	459.5738
842.051	248.73527
842.234	379.04712
842.417	107.20653
842.6	396.75779
842.783	334.24044
842.966	275.46928
843.149	782.61188
843.331	357.99533
843.514	1200.58242
843.697	1594.10525
843.88	1551.17598
844.063	970.83318
844.246	531.77151
844.429	376.47014
844.611	346.71145
844.794	397.61623
844.977	363.7968
845.16	412.31311
845.342	398.68923
845.525	324.88372
845.708	36.65745
845.89	305.83841
846.073	125.30268
846.256	301.85561
846.438	252.18622
846.621	673.12379
846.803	257.36186
846.986	90.50844
847.168	157.56448
847.351	453.25518
847.533	341.33666
847.716	436.0062
847.898	543.52129
848.081	-21.76765
848.263	237.84048
848.446	168.70664
848.628	428.71799
848.81	158.53825
848.993	141.87133
849.175	102.43669
849.357	238.81147
849.539	259.30249
849.722	127.14413
849.904	46.54545
850.086	340.4766
850.268	581.41139
850.451	618.08475
850.633	386.13264
850.815	115.00993
850.997	633.21108
851.179	97.12385
851.361	312.51106
851.543	154.53477
851.725	361.75567
851.907	174.87078
852.089	425.28764
852.271	204.699
852.453	575.11728
852.635	353.80468
852.817	230.39511
852.999	211.07122
853.181	161.6757
853.363	213.55491
853.545	286.56524
853.727	206.75122
853.908	231.47427
854.09	327.46518
854.272	598.15412
854.454	248.62742
854.636	458.71712
854.817	95.93102
854.999	427.86044
855.181	276.65449
855.362	302.39386
855.544	144.57768
855.726	409.09543
855.907	229.96344
856.089	164.70463
856.27	268.14146
856.452	205.99516
856.634	445.97108
856.815	314.7708
856.997	396.00664
857.178	146.74257
857.36	62.18495
857.541	73.80009
857.722	110.13307
857.904	353.91214
858.085	198.32533
858.267	361.97053
858.448	196.05639
858.629	357.4581
858.811	73.4745
858.992	327.8954
859.173	302.28621
859.354	281.71801
859.536	552.06385
859.717	33.50556
859.898	180.27679
860.079	237.84048
860.26	225.43045
860.441	422.71462
860.623	261.35079
860.804	222.83985
860.985	347.89377
861.166	188.7081
861.347	-36.80288
861.528	21.76421
861.709	403.94642
861.89	243.01872
862.071	406.30649
862.252	255.96022
862.433	89.64073
862.614	744.95227
862.794	142.08785
862.975	328.54072
863.156	641.83633
863.337	228.3446
863.518	406.09195
863.699	260.59617
863.879	417.88962
864.06	242.37149
864.241	310.25114
864.422	301.42501
864.602	126.3859
864.783	489.11491
864.964	119.56089
865.144	232.44548
865.325	169.0311
865.506	367.98604
865.686	157.34808
865.867	344.88413
866.047	286.56524
866.228	360.5739
866.408	63.27069
866.589	310.25114
866.769	396.8651
866.95	212.04312
867.13	159.83655
867.31	255.31328
867.491	318.85942
867.671	22.96033
867.852	155.40044
868.032	462.03664
868.212	313.47954
868.393	448.86351
868.573	165.13731
868.753	155.29223
868.933	213.12298
869.113	291.95009
869.294	236.43788
869.474	389.56745
869.654	166.11081
869.834	249.16666
870.014	273.31423
870.194	45.02446
870.374	311.00446
870.555	207.83128
870.735	214.41876
870.915	279.02476
871.095	203.51079
871.275	333.27264
871.455	422.50019
871.634	182.97941
871.814	468.46051
871.994	235.25101
872.174	305.83841
872.354	509.43483
872.534	112.95092
872.714	212.90701
872.894	154.21014
873.073	297.87228
873.253	413.49285
873.433	120.10262
873.613	57.62437
873.792	416.49559
873.972	214.52674
874.152	160.37749
874.331	357.02831
874.511	531.23733
874.691	113.27603
874.87	202.97069
875.05	174.54638
875.229	184.92513
875.409	282.04119
875.588	143.38692
875.768	369.91934
875.947	611.15838
876.127	449.39911
876.306	318.85942
876.486	232.6613
876.665	307.77578
876.844	223.48752
877.024	583.43805
877.203	319.39736
877.382	172.92436
877.562	48.50089
877.741	188.81617
877.92	301.85561
878.1	423.67953
878.279	157.99727
878.458	118.36904
878.637	230.61095
878.816	368.41568
878.996	283.54928
879.175	291.8424
879.354	155.07581
879.533	411.02608
879.712	255.8524
879.891	298.62592
880.07	437.82798
880.249	372.28209
880.428	250.56864
880.607	466.31937
880.786	77.2728
880.965	476.16739
881.144	328.97093
881.323	69.45856
881.502	213.77088
881.68	193.89533
881.859	108.07369
882.038	346.81894
882.217	255.09763
882.396	33.17949
882.574	112.73417
882.753	250.24511
882.932	184.49276
883.111	430.64739
883.289	264.69243
883.468	226.29393
883.647	223.48752
883.825	340.04657
884.004	355.84635
884.182	255.52893
884.361	217.87387
884.539	147.60848
884.718	401.90803
884.896	52.84579
885.075	178.00639
885.253	450.68452
885.432	228.66837
885.61	73.90861
885.789	162.32478
885.967	169.57187
886.145	432.14795
886.324	278.05513
886.502	188.92425
886.68	396.54318
886.859	97.34072
887.037	375.50372
887.215	230.39511
887.393	528.99365
887.572	52.41133
887.75	363.3671
887.928	380.76497
888.106	402.65903
888.284	423.78674
888.462	332.51989
888.64	219.38535
888.819	288.0731
888.997	329.18603
889.175	148.90729
889.353	73.1489
889.531	320.58078
889.709	189.78885
889.887	208.6953
890.065	448.00652
890.242	388.27944
890.42	473.81272
890.598	226.5098
890.776	378.08078
890.954	194.11144
891.132	129.09377
891.309	109.59114
891.487	347.35636
891.665	230.50303
891.843	194.75978
892.02	168.27402
892.198	273.09872
892.376	266.74034
892.553	448.11364
892.731	553.4518
892.909	332.08973
893.086	471.67195
893.264	220.0331
893.441	199.51375
893.619	170.54521
893.797	237.19314
893.974	261.24298
894.151	323.48533
894.329	169.0311
894.506	54.14912
894.684	205.88715
894.861	336.28347
895.039	154.42656
895.216	173.78945
895.393	301.31736
895.571	0.5514
895.748	111.00013
895.925	660.56981
896.102	370.77855
896.28	126.3859
896.457	73.58303
896.634	136.67439
896.811	16.65293
896.988	193.24698
897.166	237.30103
897.343	174.43825
897.52	388.92345
897.697	203.18673
897.874	474.24085
898.051	386.56201
898.228	203.18673
898.405	82.91501
898.582	-0.8634
898.759	147.392
898.936	376.47014
899.113	408.77364
899.29	388.81612
899.467	490.61262
899.643	435.6847
899.82	425.39484
899.997	423.57232
900.174	-37.67475
900.351	373.03384
900.527	253.58805
900.704	236.22209
900.881	589.83716
901.058	103.08718
901.234	310.78923
901.411	404.48282
901.588	267.71035
901.764	325.31398
901.941	406.84285
902.117	253.04889
902.294	234.71151
902.471	449.72047
902.647	139.16471
902.824	131.25988
903	312.40345
903.176	255.8524
903.353	489.86377
903.529	144.46943
903.706	366.69711
903.882	215.93042
904.058	67.07043
904.235	31.44033
904.411	63.27069
904.587	285.81128
904.764	286.13441
904.94	138.08199
905.116	236.86946
905.292	336.49852
905.469	282.04119
905.645	243.23446
905.821	420.99915
905.997	67.3961
906.173	110.5666
906.349	155.18402
906.525	247.44106
906.702	231.04261
906.878	130.39346
907.054	127.68571
907.23	306.05368
907.406	167.62507
907.582	465.14168
907.757	219.06146
907.933	208.04729
908.109	352.08526
908.285	310.68161
908.461	301.2097
908.637	88.88146
908.813	132.34287
908.988	271.26679
909.164	340.26159
909.34	306.16131
909.516	86.1696
909.691	146.52609
909.867	412.63486
910.043	275.25378
910.219	414.24356
910.394	459.5738
910.57	318.75183
910.745	472.20715
910.921	439.11388
911.097	59.14465
911.272	0.87788
911.448	469.85218
911.623	92.89451
911.799	27.4181
911.974	-23.40149
912.149	153.23622
912.325	260.59617
912.5	284.08787
912.676	144.90242
912.851	104.60491
913.026	367.5564
913.202	49.58718
913.377	120.53599
913.552	40.24363
913.727	566.90107
913.903	283.11841
914.078	134.40043
914.253	341.98169
914.428	215.49852
914.603	-76.93933
914.779	84.10841
914.954	219.06146
915.129	359.1772
915.304	282.04119
915.479	221.0047
915.654	273.96076
915.829	359.1772
916.004	11.21432
916.179	394.50429
916.354	113.16766
916.529	369.70454
916.704	216.57825
916.879	362.61511
917.053	462.03664
917.228	109.80791
917.403	302.17856
917.578	489.64981
917.753	219.92514
917.927	55.7782
918.102	164.27195
918.277	120.96936
918.452	218.73758
918.626	125.08603
918.801	413.27835
918.976	256.06804
919.15	165.02914
919.325	341.98169
919.499	295.50355
919.674	350.90311
919.849	231.90593
920.023	366.91193
920.198	308.85205
920.372	197.02882
920.547	324.34589
920.721	30.57071
920.895	364.44134
921.07	164.16377
921.244	356.27616
921.419	443.61409
921.593	203.72683
921.767	301.85561
921.942	339.4015
922.116	25.56985
922.29	172.70808
922.464	206.64322
922.639	128.87715
922.813	94.52126
922.987	345.95904
923.161	52.1941
923.335	263.18335
923.509	219.06146
923.683	323.16262
923.858	280.96393
924.032	484.30035
924.206	379.47659
924.38	-62.6445
924.554	184.92513
924.728	170.86965
924.902	593.78265
925.075	326.81984
925.249	233.30875
925.423	469.63808
925.597	288.827
925.771	239.78243
925.945	164.16377
926.119	616.16683
926.292	327.78785
926.466	294.74982
926.64	266.417
926.814	389.13812
926.987	-18.39136
927.161	95.28037
927.335	-9.02714
927.508	356.16871
927.682	-115.49861
927.856	140.68045
928.029	375.6111
928.203	397.07971
928.376	394.39697
928.55	136.89095
928.723	49.2613
928.897	257.14623
929.07	205.77913
929.244	421.64246
929.417	-57.08147
929.59	259.51811
929.764	97.88289
929.937	378.51027
930.111	497.03056
930.284	4.68651
930.457	52.41133
930.63	141.00524
930.804	197.461
930.977	191.95023
931.15	221.0047
931.323	524.93326
931.497	161.56752
931.67	238.16415
931.843	382.26802
932.016	-3.47552
932.189	198.32533
932.362	297.33395
932.535	442.32839
932.708	319.18218
932.881	148.04142
933.054	352.08526
933.227	413.06386
933.4	48.28363
933.573	228.7763
933.746	136.78267
933.919	342.3042
934.092	227.91289
934.264	165.78631
934.437	204.59098
934.61	93.65367
934.783	197.13686
934.956	60.3391
935.128	322.73233
935.301	453.14807
935.474	160.2693
935.646	-5.32593
935.819	245.93107
935.992	271.91337
936.164	71.19526
936.337	132.88434
936.51	184.49276
936.682	176.81706
936.855	65.87628
937.027	529.31419
937.2	327.57274
937.372	101.02726
937.545	250.78432
937.717	217.87387
937.889	208.04729
938.062	321.0111
938.234	345.3141
938.406	148.79906
938.579	309.92828
938.751	363.04482
938.923	346.49648
939.096	451.22009
939.268	323.48533
939.44	224.56694
939.612	341.12165
939.784	365.3007
939.957	335.85337
940.129	339.50901
940.301	299.05657
940.473	228.45252
940.645	433.86279
940.817	427.11006
940.989	233.63247
941.161	144.46943
941.333	368.52308
941.505	165.78631
941.677	239.78243
941.849	65.44204
942.021	256.28368
942.193	71.19526
942.365	22.41665
942.537	279.24023
942.708	390.64074
942.88	301.53266
943.052	86.06112
943.224	118.04398
943.395	190.22114
943.567	176.38457
943.739	284.51873
943.911	85.73568
944.082	202.53859
944.254	531.451
944.425	-3.04015
944.597	155.50864
944.769	309.17492
944.94	248.08817
945.112	551.10293
945.283	515.10066
945.455	97.23228
945.626	298.08761
945.798	176.60082
945.969	227.69704
946.14	373.14123
946.312	338.54138
946.483	210.20727
946.655	218.62962
946.826	273.20648
946.997	352.83752
947.168	-8.80941
947.34	107.09814
947.511	420.46305
947.682	196.70468
947.853	122.26943
948.025	331.44449
948.196	124.32774
948.367	216.03839
948.538	96.25634
948.709	291.19627
948.88	146.30961
949.051	267.27924
949.222	162.54114
949.393	342.6267
949.564	261.78199
949.735	98.09975
949.906	86.27808
950.077	49.2613
950.248	359.1772
950.419	151.39651
950.59	63.5964
950.761	24.04766
950.931	428.71799
951.102	415.74493
951.273	254.98981
951.444	307.77578
951.614	415.1015
951.785	158.97102
951.956	217.01013
952.126	453.14807
952.297	732.31903
952.468	98.53348
952.638	86.60352
952.809	161.0266
952.98	190.43728
953.15	195.51614
953.321	50.45618
953.491	-24.81758
953.662	293.34999
953.832	151.39651
954.002	114.03463
954.173	-140.21594
954.343	262.21318
954.514	-39.74556
954.684	44.91582
954.854	253.69588
955.025	224.56694
955.195	225.97013
955.365	193.67921
955.535	62.18495
955.706	422.92905
955.876	323.37776
956.046	432.79103
956.216	283.22612
956.386	298.08761
956.557	283.44156
956.727	49.91306
956.897	265.12358
957.067	102.97876
957.237	173.24877
957.407	338.32635
957.577	254.45068
957.747	144.36118
957.917	98.9672
958.087	37.96158
958.257	260.05714
958.427	194.2195
958.596	-8.80941
958.766	375.6111
958.936	-139.23116
959.106	363.58195
959.276	169.78817
959.445	87.5798
959.615	308.6368
959.785	365.9452
959.955	557.08153
960.124	321.9793
960.294	306.05368
960.464	120.75268
960.633	62.8364
960.803	157.78088
960.972	237.19314
961.142	53.71469
961.311	197.56904
961.481	257.5775
961.65	253.58805
961.82	299.05657
961.989	535.40373
962.159	244.85246
962.328	502.2709
962.498	436.86352
962.667	-113.53101
962.836	173.35691
963.006	286.56524
963.175	211.2872
963.344	359.1772
963.513	93.76212
963.683	-86.43722
963.852	163.19021
964.021	165.78631
964.19	131.25988
964.359	112.51742
964.528	240.96911
964.698	10.56161
964.867	198.10925
965.036	225.75426
965.205	516.38335
965.374	268.03368
965.543	307.4529
965.712	171.84295
965.881	203.61882
966.05	129.31039
966.219	197.24491
966.387	292.38084
966.556	300.67143
966.725	176.38457
966.894	376.25539
967.063	173.46504
967.232	289.15009
967.4	31.22293
967.569	154.96761
967.738	520.55172
967.906	86.92895
968.075	387.74276
968.244	29.48365
968.412	93.97902
968.581	301.42501
968.75	137.86544
968.918	179.4119
969.087	130.50176
969.255	264.04569
969.424	268.14146
969.592	412.84936
969.761	201.24227
969.929	289.25779
970.098	315.73921
970.266	-47.70338
970.434	129.96024
970.603	248.41172
970.771	331.12186
970.939	230.71887
971.108	435.25602
971.276	128.55222
971.444	297.22628
971.612	-139.01233
971.781	153.45265
971.949	794.48466
972.117	225.53839
972.285	478.73593
972.453	-56.53614
972.621	148.58259
972.789	166.97611
972.957	468.67462
973.125	61.42491
973.293	131.25988
973.461	234.81941
973.629	499.9182
973.797	81.72157
973.965	292.59621
974.133	158.43005
974.301	223.9193
974.469	42.30819
974.637	194.54367
974.805	503.34025
974.972	277.83965
975.14	394.39697
975.308	200.81015
975.476	49.04404
975.643	367.5564
975.811	76.29614
975.979	609.4532
976.146	220.0331
976.314	398.15274
976.482	231.15053
976.649	104.60491
976.817	266.52478
976.984	344.13167
977.152	101.56936
977.319	514.67309
977.487	414.99426
977.654	331.44449
977.822	23.06906
977.989	245.28391
978.156	117.50221
978.324	253.91154
978.491	97.99132
978.658	-26.1248
978.826	246.68607
978.993	262.21318
979.16	210.85523
979.328	177.79016
979.495	385.70326
979.662	20.4593
979.829	121.40272
979.996	398.26004
980.163	357.13576
980.33	3.16312
980.498	160.70205
980.665	343.70169
980.832	-67.66315
980.999	276.86998
981.166	165.56998
981.333	362.07796
981.5	244.0974
981.667	763.30988
981.833	-51.51964
982	410.06077
982.167	75.86206
982.334	199.83786
982.501	147.82495
982.668	296.25725
982.834	-12.51111
983.001	415.6377
983.168	413.81458
983.335	140.46392
983.501	219.27738
983.668	134.29214
983.835	105.03853
984.001	384.20039
984.168	40.13497
984.334	347.89377
984.501	189.24848
984.668	138.73163
984.834	4.36008
985.001	-60.02645
985.167	430.64739
985.334	-36.47593
985.5	114.57647
985.666	13.28113
985.833	-95.61094
985.999	204.59098
986.165	235.03521
986.332	440.82832
986.498	199.83786
986.664	241.29275
986.831	212.58306
986.997	189.46463
987.163	26.87451
987.329	168.16586
987.495	-42.57957
987.662	365.62295
987.828	4.36008
987.994	390.64074
988.16	343.2717
988.326	182.43891
988.492	114.57647
988.658	367.66381
988.824	296.58027
988.99	89.09839
989.156	61.75064
989.322	613.60942
989.488	296.7956
989.654	128.44391
989.82	141.43829
989.985	472.42123
990.151	315.41641
990.317	569.03536
990.483	19.37182
990.648	361.75567
990.814	253.91154
990.98	296.04191
991.146	266.417
991.311	380.33552
991.477	268.57256
991.643	17.30549
991.808	74.66831
991.974	-67.44493
992.139	181.79029
992.305	203.51079
992.47	67.83031
992.636	300.56378
992.801	348.53866
992.967	256.82278
993.132	169.89632
993.298	712.13851
993.463	88.01369
993.628	211.2872
993.794	98.42505
993.959	415.1015
994.124	16.87046
994.29	232.55339
994.455	380.9797
994.62	242.04787
994.785	431.71923
994.95	109.69953
995.116	320.47319
995.281	258.87125
995.446	175.3033
995.611	-31.35433
995.776	116.85207
995.941	356.59851
996.106	85.95264
996.271	234.2799
996.436	270.83573
996.601	423.35789
996.766	117.06879
996.931	321.76415
997.096	237.94837
997.261	71.41234
997.425	361.97053
997.59	164.27195
997.755	166.97611
997.92	199.72982
998.085	192.59861
998.249	119.12749
998.414	-47.04922
998.579	-45.84997
998.744	193.35504
998.908	368.20086
999.073	401.47888
999.237	323.5929
999.402	85.51871
999.567	230.50303
999.731	185.03323
999.896	-16.32223
1000.06	375.07419
1000.225	273.6375
1000.389	256.9306
1000.553	320.47319
1000.718	345.52908
1000.882	-82.94334
1001.047	175.95206
1001.211	155.40044
1001.375	484.30035
1001.54	146.85081
1001.704	85.19326
1001.868	421.10637
1002.032	515.9558
1002.197	266.74034
1002.361	127.25245
1002.525	214.85067
1002.689	288.9347
1002.853	93.87057
1003.017	26.11347
1003.181	84.10841
1003.345	201.67439
1003.509	380.9797
1003.673	266.09365
1003.837	362.07796
1004.001	178.6551
1004.165	224.56694
1004.329	363.15225
1004.493	259.08687
1004.657	231.6901
1004.821	51.10792
1004.985	266.74034
1005.149	230.39511
1005.312	256.71496
1005.476	200.48606
1005.64	612.65034
1005.804	163.29838
1005.967	320.36561
1006.131	336.17594
1006.295	302.17856
1006.458	310.46637
1006.622	164.0556
1006.785	276.439
1006.949	432.25513
1007.113	188.27578
1007.276	227.91289
1007.44	363.58195
1007.603	-23.61935
1007.767	286.24211
1007.93	75.86206
1008.093	187.84346
1008.257	217.01013
1008.42	-18.82698
1008.584	312.18822
1008.747	200.59409
1008.91	225.53839
1009.073	61.20775
1009.237	233.52456
1009.4	259.4103
1009.563	-72.68279
1009.726	148.69083
1009.889	582.58473
1010.053	307.4529
1010.216	204.48296
1010.379	363.15225
1010.542	520.44485
1010.705	350.90311
1010.868	367.66381
1011.031	300.13316
1011.194	200.16196
1011.357	270.08136
1011.52	123.24444
1011.683	79.44302
1011.846	197.02882
1012.009	328.86338
1012.171	202.32254
1012.334	307.34527
1012.497	419.81971
1012.66	142.9539
1012.823	218.52165
1012.985	506.12038
1013.148	332.73496
1013.311	181.35787
1013.473	227.15739
1013.636	81.28757
1013.799	410.70431
1013.961	357.02831
1014.124	224.02724
1014.286	286.0267
1014.449	-19.0448
1014.612	415.31598
1014.774	80.20256
1014.936	164.16377
1015.099	-59.59014
1015.261	9.25615
1015.424	231.90593
1015.586	246.57822
1015.748	182.76321
1015.911	29.04881
1016.073	738.58316
1016.235	385.70326
1016.398	263.72231
1016.56	423.03626
1016.722	10.88797
1016.884	91.26767
1017.047	302.07091
1017.209	291.08858
1017.371	52.41133
1017.533	93.76212
1017.695	444.89975
1017.857	352.19273
1018.019	413.49285
1018.181	379.69132
1018.343	164.27195
1018.505	201.13424
1018.667	-136.93349
1018.829	112.84254
1018.991	292.81157
1019.153	278.2706
1019.315	-137.37113
1019.477	147.392
1019.638	92.4607
1019.8	-6.52332
1019.962	282.25663
1020.124	113.49278
1020.285	175.41143
1020.447	291.41165
1020.609	171.95109
1020.77	94.95504
1020.932	624.90312
1021.094	119.34419
1021.255	57.08139
1021.417	525.14698
1021.578	46.00225
1021.74	227.26532
1021.901	169.0311
1022.063	227.80496
1022.224	349.61343
1022.386	257.79313
1022.547	277.62417
1022.709	295.18052
1022.87	413.27835
1023.031	255.42111
1023.193	86.92895
1023.354	323.91561
1023.515	241.18487
1023.676	298.30293
1023.838	275.90027
1023.999	216.57825
1024.16	296.7956
1024.321	368.8453
1024.482	286.13441
1024.644	531.02365
1024.805	347.03391
1024.966	163.40656
1025.127	44.58988
1025.288	218.62962
1025.449	551.63678
1025.61	222.08421
1025.771	347.89377
1025.932	428.39641
1026.093	363.58195
1026.253	188.92425
1026.414	-149.19015
1026.575	105.03853
1026.736	3.7072
1026.897	135.48329
1027.058	325.42154
1027.218	253.04889
1027.379	-25.03544
1027.54	308.85205
1027.7	220.46492
1027.861	407.59373
1028.022	281.82574
1028.182	199.29768
1028.343	239.45878
1028.504	80.52807
1028.664	137.10751
1028.825	216.36231
1028.985	279.99436
1029.146	60.88201
1029.306	93.65367
1029.466	532.73302
1029.627	395.14816
1029.787	175.95206
1029.948	168.05771
1030.108	247.3332
1030.268	366.48228
1030.429	70.32692
1030.589	200.70212
1030.749	178.87133
1030.909	200.26999
1031.07	315.73921
1031.23	198.32533
1031.39	-9.89809
1031.55	258.87125
1031.71	-11.85783
1031.87	168.70664
1032.03	331.65957
1032.19	172.81622
1032.35	192.05829
1032.51	364.33391
1032.67	81.28757
1032.83	129.52701
1032.99	230.2872
1033.15	350.58069
1033.31	351.87033
1033.47	-4.99938
1033.63	331.01432
1033.79	245.06818
1033.949	84.21689
1034.109	363.47452
1034.269	200.48606
1034.429	467.49702
1034.588	354.23451
1034.748	117.82728
1034.908	205.67112
1035.067	236.43788
1035.227	185.89794
1035.387	277.40869
1035.546	494.14265
1035.706	59.47041
1035.865	397.29432
1036.025	154.31835
1036.184	214.85067
1036.344	255.42111
1036.503	421.42803
1036.662	84.54235
1036.822	347.67881
1036.981	156.04967
1037.14	307.34527
1037.3	132.12627
1037.459	182.43891
1037.618	361.43337
1037.778	363.90422
1037.937	268.03368
1038.096	260.05714
1038.255	248.73527
1038.414	185.57368
1038.573	485.47731
1038.733	329.40113
1038.892	332.62743
1039.051	459.03838
1039.21	459.03838
1039.369	118.6941
1039.528	329.50868
1039.687	308.52917
1039.846	378.08078
1040.005	105.36374
1040.164	335.53079
1040.322	140.78872
1040.481	227.48118
1040.64	160.05292
1040.799	43.06877
1040.958	493.28692
1041.116	224.67488
1041.275	146.74257
1041.434	253.37239
1041.593	64.57352
1041.751	168.16586
1041.91	387.09872
1042.069	51.75963
1042.227	274.82278
1042.386	492.3242
1042.544	151.93761
1042.703	217.1181
1042.861	269.32697
1043.02	99.72619
1043.178	365.62295
1043.337	486.54724
1043.495	336.39099
1043.653	114.35973
1043.812	84.10841
1043.97	166.86795
1044.129	159.40379
1044.287	203.94287
1044.445	351.11805
1044.603	-27.9768
1044.762	-24.16399
1044.92	511.14538
1045.078	308.6368
1045.236	135.80814
1045.394	265.23137
1045.552	512.42823
