Data from deutdg_266ms_15_SR4014911__0__16-47-19-341.txt Node

Date: Sun Jul 13 16:47:19 EDT 2025
User: cryst
Spectrometer: SR401491
Trigger mode: 0
Integration Time (sec): 2.660000E-1
Scans to average: 15
Electric dark correction enabled: true
Nonlinearity correction enabled: true
Boxcar width: 0
XAxis mode: Wavelengths
Number of Pixels in Spectrum: 3648
>>>>>Begin Spectral Data<<<<<
344.912	-479.76235
345.129	-489.53085
345.347	-486.27422
345.565	-469.18452
345.783	221.40772
346.001	135.92364
346.219	94.60078
346.437	153.38772
346.654	318.83073
346.872	103.05827
347.09	-48.05954
347.308	267.71754
347.526	178.69835
347.743	60.31014
347.961	411.498
348.179	221.11985
348.397	234.64676
348.614	382.23939
348.832	461.65117
349.05	467.86101
349.268	482.34578
349.485	492.83052
349.703	357.46526
349.921	580.56514
350.138	578.0049
350.356	551.67948
350.574	357.03547
350.791	459.50955
351.009	544.20478
351.227	471.50068
351.444	431.51201
351.662	490.69107
351.879	375.72565
352.097	469.71658
352.314	422.29291
352.532	441.08548
352.75	510.79615
352.967	533.45236
353.185	547.19487
353.402	391.18453
353.62	390.61212
353.837	549.40167
354.055	476.2102
354.272	607.08001
354.49	729.63607
354.707	672.4572
354.925	390.25436
355.142	552.88951
355.359	646.9891
355.577	654.29812
355.794	602.03462
356.012	724.96339
356.229	524.976
356.446	480.63365
356.664	576.29797
356.881	647.55685
357.099	465.57707
357.316	499.24801
357.533	592.5102
357.751	454.44047
357.968	942.77533
358.185	654.08526
358.402	552.96068
358.62	721.42305
358.837	692.66166
359.054	450.15608
359.272	465.7912
359.489	479.84889
359.706	565.27181
359.923	635.98702
360.141	546.62535
360.358	640.60125
360.575	603.59807
360.792	502.31367
361.009	500.31746
361.226	544.48957
361.444	786.43565
361.661	607.79057
361.878	533.73724
362.095	492.26002
362.312	613.19027
362.529	635.34808
362.746	626.11749
362.963	417.57508
363.181	470.21614
363.398	563.35073
363.615	771.23704
363.832	402.2728
364.049	424.72302
364.266	785.0221
364.483	634.92211
364.7	529.89114
364.917	374.86658
365.134	634.78012
365.351	566.12558
365.568	636.34199
365.785	490.54843
366.002	423.65094
366.219	486.83968
366.436	648.40846
366.652	719.15704
366.869	508.23027
367.086	695.21293
367.303	408.0657
367.52	478.63604
367.737	713.77464
367.954	652.59519
368.171	510.29725
368.387	842.50679
368.604	539.07825
368.821	571.81683
369.038	489.54996
369.255	589.73763
369.471	419.43371
369.688	733.95418
369.905	679.83148
370.122	628.81593
370.339	592.01257
370.555	445.44256
370.772	446.15678
370.989	896.16382
371.205	536.6571
371.422	601.53715
371.639	488.3375
371.855	793.50248
372.072	554.5977
372.289	497.82201
372.505	756.38538
372.722	452.58397
372.939	547.33725
373.155	723.26407
373.372	468.64607
373.589	651.0341
373.805	546.55416
374.022	494.39936
374.238	406.27789
374.455	619.72555
374.671	699.96061
374.888	611.62729
375.104	346.93359
375.321	390.89833
375.537	545.77106
375.754	666.92541
375.97	589.45325
376.187	848.64515
376.403	515.0009
376.62	586.11161
376.836	478.85008
377.053	588.6712
377.269	511.58013
377.486	487.33896
377.702	330.37622
377.918	405.56273
378.135	543.7776
378.351	643.51142
378.568	519.84635
378.784	585.8983
379	574.02191
379.217	517.49497
379.433	458.2959
379.649	770.035
379.865	477.92258
380.082	744.85321
380.298	464.64918
380.514	828.8151
380.731	526.97064
380.947	417.36061
381.163	603.527
381.379	539.22067
381.596	560.57564
381.812	751.64563
382.028	589.87982
382.244	535.58889
382.46	443.7998
382.676	773.64098
382.893	596.84629
383.109	568.75791
383.325	513.71815
383.541	697.764
383.757	349.22652
383.973	607.00895
384.189	723.83052
384.405	580.28068
384.622	573.16835
384.838	660.04485
385.054	604.09551
385.27	755.53652
385.486	518.06502
385.702	425.0089
385.918	589.66654
386.134	588.24461
386.35	684.72313
386.566	784.45667
386.782	713.56216
386.998	729.06972
387.214	643.79533
387.43	628.10584
387.646	815.68299
387.861	707.11628
388.077	619.51247
388.293	678.48438
388.509	750.7259
388.725	594.21627
388.941	656.7814
389.157	561.5007
389.373	627.46674
389.588	646.20843
389.804	650.25352
390.02	819.84909
390.236	474.8545
390.452	583.76514
390.668	503.45431
390.883	857.18063
391.099	657.06519
391.315	717.45743
391.531	550.39823
391.746	613.97173
391.962	666.358
392.178	643.22752
392.393	572.95495
392.609	898.20698
392.825	601.32394
393.041	543.70641
393.256	705.55775
393.472	793.50248
393.687	691.95294
393.903	827.12091
394.119	699.60633
394.334	719.51111
394.55	825.99141
394.766	682.7382
394.981	828.25038
395.197	856.75743
395.412	922.36377
395.628	887.28532
395.843	909.54789
396.059	1228.29272
396.274	832.27382
396.49	1033.01369
396.705	734.09575
396.921	529.17885
397.136	743.43795
397.352	721.91872
397.567	641.9499
397.783	682.45463
397.998	712.71223
398.214	710.94146
398.429	535.44646
398.644	1002.74778
398.86	661.9602
399.075	822.32027
399.29	623.48985
399.506	592.36802
399.721	703.43236
399.936	667.91837
400.152	594.71386
400.367	693.08688
400.582	685.99909
400.798	806.00725
401.013	533.52358
401.228	758.2245
401.444	749.7354
401.659	668.84037
401.874	872.41242
402.089	697.33884
402.304	720.78575
402.52	730.55637
402.735	595.78009
402.95	604.66401
403.165	786.43565
403.38	893.76825
403.596	655.43336
403.811	771.73198
404.026	981.17452
404.241	614.89525
404.456	668.98221
404.671	897.78426
404.886	784.10327
405.101	681.95837
405.316	713.06637
405.532	928.06608
405.747	763.4584
405.962	779.0846
406.177	768.33793
406.392	688.26735
406.607	883.7615
406.822	874.80942
407.037	911.73114
407.252	1139.35076
407.467	1076.29892
407.682	1092.77234
407.896	1235.6957
408.111	1229.27055
408.326	1333.62549
408.541	1619.80252
408.756	1826.77193
408.971	1926.3667
409.186	1936.34356
409.401	1691.95286
409.616	943.33824
409.83	766.00433
410.045	652.45328
410.26	625.19429
410.475	584.83174
410.69	748.53261
410.905	761.54883
411.119	522.26879
411.334	634.28314
411.549	695.92158
411.764	804.9477
411.978	872.0599
412.193	721.91872
412.408	664.79756
412.623	507.87388
412.837	900.46136
413.052	787.9198
413.267	763.67057
413.481	646.2794
413.696	627.75079
413.911	602.46103
414.125	633.78616
414.34	559.22358
414.554	627.67977
414.769	787.49576
414.984	683.16355
415.198	527.18435
415.413	576.72471
415.627	685.21934
415.842	638.9686
416.056	768.47936
416.271	607.86162
416.485	704.06999
416.7	761.90246
416.914	650.18256
417.129	631.15914
417.343	735.36984
417.558	685.29023
417.772	768.26722
417.987	721.35224
418.201	654.86574
418.415	540.85839
418.63	687.7003
418.844	648.19556
419.059	812.29326
419.273	667.42189
419.487	890.73833
419.702	753.55576
419.916	948.61516
420.13	660.54143
420.345	639.11057
420.559	663.80451
420.773	671.67713
420.988	702.86557
421.202	854.99405
421.416	665.365
421.63	698.18916
421.845	737.70554
422.059	710.72896
422.273	545.84225
422.487	737.56399
422.701	921.51891
422.916	914.97055
423.13	662.03114
423.344	638.9686
423.558	587.46253
423.772	566.48131
423.986	694.22079
424.201	628.17685
424.415	893.62733
424.629	780.92251
424.843	707.82468
425.057	799.93205
425.271	518.20753
425.485	538.43738
425.699	534.23577
425.913	806.00725
426.127	701.30684
426.341	662.81143
426.555	698.04744
426.769	765.15571
426.983	873.39944
427.197	771.37845
427.411	686.28263
427.625	895.882
427.839	658.34222
428.053	673.16634
428.267	631.15914
428.481	802.26336
428.695	644.71801
428.908	528.96516
429.122	773.78239
429.336	728.14938
429.55	679.54788
429.764	803.88812
429.978	1096.06618
430.191	1193.6344
430.405	1596.95196
430.619	1661.80527
430.833	2234.43114
431.047	2851.68151
431.26	3840.64671
431.474	4580.85699
431.688	5128.84582
431.901	5348.49151
432.115	6385.13941
432.329	7004.65609
432.543	7699.36953
432.756	8965.78912
432.97	9320.77708
433.184	6666.12999
433.397	3088.16283
433.611	1113.23167
433.824	976.74588
434.038	762.46826
434.252	764.80211
434.465	695.42553
434.679	665.8615
434.892	776.11546
435.106	481.20437
435.319	640.95616
435.533	871.49587
435.747	801.27434
435.96	529.32131
436.174	843.00072
436.387	816.6716
436.601	750.08915
436.814	887.56721
437.027	568.18877
437.241	827.12091
437.454	563.91995
437.668	815.61237
437.881	854.64137
438.095	716.74923
438.308	769.04505
438.521	973.58225
438.735	759.70988
438.948	765.86289
439.161	737.42243
439.375	731.90138
439.588	799.72011
439.801	789.47456
440.015	767.41865
440.228	878.5456
440.441	992.3492
440.654	1121.70653
440.868	1022.06178
441.081	649.11811
441.294	875.3029
441.507	864.65631
441.721	675.01002
441.934	842.93016
442.147	670.96797
442.36	756.59759
442.573	818.01324
442.786	636.12901
443	902.22249
443.213	758.36597
443.426	791.52391
443.639	962.82386
443.852	814.55312
444.065	955.93121
444.278	863.95112
444.491	897.71381
444.704	809.96262
444.917	913.63257
445.13	843.98856
445.343	756.10243
445.556	1121.63649
445.769	1131.99996
445.982	885.03011
446.195	965.07424
446.408	882.06994
446.621	1046.55877
446.834	815.11806
447.047	825.77962
447.26	793.92645
447.473	864.37423
447.686	877.06527
447.899	848.92735
448.111	987.42994
448.324	944.39369
448.537	836.72023
448.75	788.41451
448.963	820.34334
449.176	1032.45213
449.388	975.05864
449.601	862.25862
449.814	830.22686
450.027	860.84814
450.239	874.24543
450.452	829.16805
450.665	688.05471
450.878	800.70917
451.09	890.45647
451.303	851.46703
451.516	788.06115
451.728	970.34803
451.941	633.36017
452.154	994.66805
452.366	911.94241
452.579	742.80106
452.792	1008.92934
453.004	912.15369
453.217	790.11058
453.429	837.84939
453.642	777.1759
453.854	972.1761
454.067	1059.88859
454.28	1121.77656
454.492	649.68582
454.705	776.75173
454.917	750.37216
455.13	1066.90241
455.342	933.27482
455.555	680.68225
455.767	1140.47076
455.979	873.39944
456.192	982.93177
456.404	739.97031
456.617	896.79792
456.829	760.62937
457.041	952.20302
457.254	938.7643
457.466	770.52996
457.679	833.40312
457.891	1034.13678
458.103	897.78426
458.315	881.50607
458.528	753.98022
458.74	845.18805
458.952	887.42627
459.165	827.47388
459.377	705.55775
459.589	584.83174
459.801	852.10192
460.014	875.09141
460.226	836.01449
460.438	786.64767
460.65	644.78898
460.862	864.93838
461.075	796.04619
461.287	720.5025
461.499	560.36216
461.711	607.29318
461.923	771.30774
462.135	892.85226
462.347	764.02418
462.559	808.62067
462.771	825.92081
462.983	694.22079
463.196	870.15627
463.408	933.62673
463.62	882.06994
463.832	1002.11551
464.044	925.03904
464.256	945.51946
464.468	781.27594
464.68	895.3888
464.891	907.71668
465.103	738.20097
465.315	1018.19978
465.527	718.37806
465.739	654.22717
465.951	736.28998
466.163	789.75724
466.375	655.93001
466.587	936.44193
466.799	668.84037
467.01	717.03251
467.222	743.93329
467.434	670.54246
467.646	717.81152
467.858	806.64297
468.069	771.80269
468.281	619.65452
468.493	515.35721
468.705	637.54883
468.916	699.03947
469.128	579.78287
469.34	635.0641
469.551	643.36947
469.763	455.44007
469.975	623.41883
470.186	667.63467
470.398	596.84629
470.61	614.39798
470.821	513.71815
471.033	615.67667
471.245	846.6697
471.456	515.28594
471.668	704.35338
471.879	596.56198
472.091	797.24732
472.302	837.0731
472.514	834.74412
472.725	718.73214
472.937	581.20516
473.148	556.23463
473.36	692.8034
473.571	738.48407
473.783	636.55496
473.994	689.18878
474.206	613.26131
474.417	598.19676
474.629	747.1175
474.84	800.42658
475.051	873.68144
475.263	559.9352
475.474	679.47699
475.685	758.29524
475.897	641.80794
476.108	898.48878
476.319	574.59094
476.531	648.40846
476.742	838.69624
476.953	855.48781
477.165	1043.96242
477.376	703.50321
477.587	750.7259
477.798	782.97237
478.01	609.42478
478.221	792.44255
478.432	810.10388
478.643	755.60726
478.854	642.65969
479.065	1098.9393
479.277	952.34371
479.488	855.06459
479.699	956.84562
479.91	808.40878
480.121	936.93457
480.332	860.56604
480.543	943.05679
480.754	637.61982
480.965	785.3755
481.176	887.99004
481.387	1075.45754
481.598	876.57181
481.809	1135.15047
482.02	1672.2484
482.231	3645.57757
482.442	7443.79861
482.653	13799.82499
482.864	20812.42802
483.075	30989.41109
483.286	42647.19245
483.497	56821.82771
483.708	63137.14833
483.919	63137.14833
484.13	63137.14833
484.341	63137.14833
484.551	63137.14833
484.762	63137.14833
484.973	63137.14833
485.184	63137.14833
485.395	44845.65753
485.605	11601.73996
485.816	5796.02924
486.027	3072.18607
486.238	2308.86092
486.449	2285.06376
486.659	1841.5232
486.87	1590.09464
487.081	1515.63838
487.291	1442.93709
487.502	1255.9423
487.713	1156.91711
487.923	1207.26369
488.134	1068.16476
488.345	1429.9398
488.555	1244.98245
488.766	1063.04497
488.976	1300.51967
489.187	1149.35964
489.398	1197.05963
489.608	1252.94085
489.819	1033.64543
490.029	943.26788
490.24	1281.62024
490.45	1204.74786
490.661	1155.02788
490.871	1013.003
491.082	864.2332
491.292	894.96606
491.503	1099.07945
491.713	1074.19543
491.924	1035.89154
492.134	971.33239
492.344	975.90227
492.555	1035.18965
492.765	1159.15609
492.975	1118.97516
493.186	1164.54311
493.396	1173.49653
493.607	807.63183
493.817	1164.68302
494.027	955.79053
494.237	918.28008
494.448	916.02682
494.658	1077.56097
494.868	816.45976
495.078	1038.27789
495.289	1214.81025
495.499	976.60528
495.709	844.97638
495.919	945.4491
496.129	976.25378
496.34	807.7731
496.55	733.67105
496.76	1015.95261
496.97	1071.03996
497.18	910.88603
497.39	861.48286
497.6	1085.76323
497.81	1136.90064
498.021	1119.18527
498.231	1164.89289
498.441	981.45568
498.651	908.20971
498.861	724.18455
499.071	938.7643
499.281	1100.62103
499.491	928.20687
499.701	975.90227
499.911	959.65903
500.121	943.05679
500.331	1047.33062
500.54	1248.54298
500.75	1026.34464
500.96	949.45939
501.17	865.78457
501.38	956.14223
501.59	1064.65813
501.8	881.43558
502.01	721.21062
502.219	946.71555
502.429	1088.14647
502.639	1172.937
502.849	1056.17074
503.059	916.51973
503.268	949.45939
503.478	857.1101
503.688	1030.06541
503.898	926.02462
504.107	900.88404
504.317	1220.46924
504.527	1049.71625
504.736	1047.68146
504.946	898.55923
505.156	1037.01455
505.365	880.44878
505.575	897.92517
505.785	927.15096
505.994	1069.4972
506.204	856.2637
506.413	886.86248
506.623	705.06184
506.832	916.51973
507.042	950.0222
507.251	1009.70197
507.461	974.77743
507.67	940.38284
507.88	839.96647
508.089	907.29408
508.299	944.81586
508.508	927.15096
508.718	720.07762
508.927	806.14852
509.137	1080.92621
509.346	1035.96173
509.555	831.07389
509.765	830.22686
509.974	1503.84191
510.184	1019.74463
510.393	857.74489
510.602	877.20626
510.812	1068.93618
511.021	916.94222
511.23	1190.13897
511.439	794.56238
511.649	843.84745
511.858	964.44133
512.067	942.91606
512.276	1002.39652
512.486	1577.8321
512.695	908.49144
512.904	727.08741
513.113	904.6175
513.322	923.20861
513.531	939.11617
513.741	1033.71562
513.95	728.36177
514.159	945.58982
514.368	768.26722
514.577	853.4422
514.786	789.54523
514.995	833.61486
515.204	906.02625
515.413	758.6489
515.622	784.66871
515.831	834.67354
516.04	824.65007
516.249	670.25878
516.458	784.95143
516.667	904.82881
516.876	1006.18991
517.085	836.43794
517.294	1002.39652
517.503	831.28565
517.712	867.54742
517.921	910.60432
518.13	963.87874
518.339	971.19177
518.547	1221.79654
518.756	779.93288
518.965	851.53757
519.174	879.53245
519.383	880.8717
519.591	737.84709
519.8	661.32176
520.009	863.8806
520.218	784.88075
520.426	854.64137
520.635	968.37924
520.844	903.77222
521.053	942.00131
521.261	996.49493
521.47	923.13821
521.679	946.22305
521.887	863.8806
522.096	820.62576
522.304	734.16654
522.513	713.27885
522.722	728.50336
522.93	980.68247
523.139	885.3825
523.347	731.61822
523.556	706.9746
523.764	813.98816
523.973	791.80657
524.182	720.07762
524.39	911.73114
524.598	730.62716
524.807	653.16285
525.015	846.38749
525.224	880.66024
525.432	798.51906
525.641	635.27708
525.849	823.44989
526.057	861.13024
526.266	969.99647
526.474	706.76207
526.683	788.69719
526.891	946.71555
527.099	794.49173
527.308	839.4725
527.516	679.90238
527.724	893.1341
527.932	704.28253
528.141	970.2074
528.349	1083.23965
528.557	852.03137
528.765	730.41479
528.974	662.10208
529.182	786.50632
529.39	839.54306
529.598	716.11184
529.806	633.43117
530.015	893.1341
530.223	707.04544
530.431	691.66945
530.639	635.41907
530.847	737.13933
531.055	809.82137
531.263	838.41396
531.471	596.91737
531.679	591.8704
531.887	825.42664
532.095	880.58976
532.303	983.21292
532.511	773.21677
532.719	756.52685
532.927	807.70246
533.135	878.26363
533.343	1027.53813
533.551	883.05669
533.759	811.58702
533.967	993.19244
534.175	880.8717
534.383	1010.68528
534.591	996.77598
534.798	951.71059
535.006	753.41427
535.214	793.07851
535.422	714.27043
535.63	915.60431
535.837	692.87427
536.045	712.78306
536.253	796.75274
536.461	824.15588
536.668	842.50679
536.876	913.13961
537.084	1061.22131
537.292	894.47285
537.499	1038.76918
537.707	903.70178
537.915	988.06246
538.122	1087.58572
538.33	1011.3174
538.538	920.11076
538.745	960.01069
538.953	1057.71404
539.16	946.15269
539.368	855.34674
539.575	755.39504
539.783	858.52073
539.99	1120.30585
540.198	863.45748
540.406	864.16268
540.613	819.56666
540.82	800.77982
541.028	908.6323
541.235	947.27841
541.443	1054.69753
541.65	1215.998
541.858	993.40324
542.065	866.06663
542.272	786.71835
542.48	1221.51711
542.687	787.99047
542.895	1008.5079
543.102	841.7306
543.309	939.46802
543.516	976.25378
543.724	947.27841
543.931	830.72097
544.138	1022.06178
544.346	854.92352
544.553	916.44931
544.76	914.26635
544.967	855.98156
545.174	936.2308
545.382	882.98621
545.589	945.58982
545.796	1049.9969
546.003	719.93599
546.21	941.79021
546.417	1170.48896
546.624	991.15458
546.832	936.58269
547.039	939.39765
547.246	1047.68146
547.453	947.91161
547.66	746.26841
547.867	971.75425
548.074	912.29453
548.281	832.90905
548.488	832.97963
548.695	823.30869
548.902	895.81154
549.109	827.96802
549.316	692.16556
549.523	724.60937
549.73	813.63507
549.936	916.87181
550.143	768.05508
550.35	754.19244
550.557	759.92207
550.764	763.95346
550.971	940.94579
551.178	814.20002
551.384	968.94176
551.591	991.22486
551.798	986.0946
552.005	831.56798
552.211	938.34207
552.418	843.42409
552.625	666.28707
552.832	924.96864
553.038	904.96969
553.245	950.51466
553.452	1000.49968
553.658	825.14426
553.865	803.04043
554.072	912.7875
554.278	904.75838
554.485	1226.40684
554.691	1066.76215
554.898	806.64297
555.105	999.37558
555.311	884.60725
555.518	1061.92273
555.724	1000.28892
555.931	733.67105
556.137	750.7259
556.344	917.15347
556.55	902.78604
556.757	909.12531
556.963	897.78426
557.17	938.69393
557.376	963.45679
557.582	1121.70653
557.789	830.86214
557.995	781.98279
558.202	812.08139
558.408	882.42235
558.614	765.01427
558.821	927.99569
559.027	1016.72509
559.233	932.5006
559.439	1161.53486
559.646	946.43412
559.852	1062.41371
560.058	1042.13785
560.264	1012.23044
560.471	895.3888
560.677	1059.46772
560.883	1061.85259
561.089	1070.82959
561.295	903.34957
561.502	963.31614
561.708	850.05612
561.914	1002.04526
562.12	987.35966
562.326	1057.85434
562.532	1021.64049
562.738	1057.71404
562.944	882.84524
563.15	961.20631
563.356	795.90488
563.562	949.45939
563.768	1019.60419
563.974	779.7915
564.18	998.46223
564.386	924.61664
564.592	842.71848
564.798	867.12434
565.004	1124.22762
565.21	762.53899
565.416	976.88648
565.622	1008.57814
565.828	1003.02878
566.034	1129.47937
566.239	984.68893
566.445	1208.45167
566.651	1139.14075
566.857	1358.49014
567.063	1152.85865
567.268	1308.11889
567.474	1362.11068
567.68	1281.13195
567.886	1490.93169
568.091	1645.27149
568.297	1448.14883
568.503	1575.68409
568.708	1672.45585
568.914	1792.22104
569.12	1793.8767
569.325	1628.38597
569.531	1673.42397
569.737	1377.21617
569.942	1503.07851
570.148	1764.06663
570.353	2042.33153
570.559	1984.34481
570.765	1831.73544
570.97	1920.99909
571.176	2212.11249
571.381	1729.33514
571.587	1405.25525
571.792	1517.44227
571.998	1514.7364
572.203	1609.48651
572.408	2144.90232
572.614	2375.55616
572.819	2169.78077
573.025	1911.98305
573.23	1871.01334
573.435	1887.06067
573.641	1958.76767
573.846	1732.37424
574.051	1953.88467
574.257	2103.89547
574.462	2082.69517
574.667	1928.08698
574.873	1893.12021
575.078	2198.00516
575.283	2040.88945
575.488	2277.19783
575.694	2492.04635
575.899	1911.57006
576.104	2077.41105
576.309	2224.77896
576.514	2253.45733
576.719	2875.90752
576.925	3208.31157
577.13	2920.94851
577.335	2619.78141
577.54	2387.98577
577.745	1955.60409
577.95	2144.35392
578.155	1949.27637
578.36	1790.01341
578.565	1951.68374
578.77	2530.08373
578.975	2631.21573
579.18	2304.00646
579.385	2512.2264
579.59	2872.37923
579.795	2297.64726
580	1854.20322
580.205	2025.57369
580.41	2910.84344
580.615	4329.36945
580.82	4557.80424
581.024	3768.45232
581.229	3565.66581
581.434	3322.10721
581.639	2619.84948
581.844	2180.81176
582.049	1951.68374
582.253	2272.54621
582.458	1961.10586
582.663	1572.15006
582.868	1581.08856
583.072	1642.36539
583.277	2127.14529
583.482	2431.47148
583.686	2573.54998
583.891	2380.81512
584.096	2509.70421
584.3	2778.89373
584.505	2268.16791
584.71	2441.91212
584.914	2509.15886
585.119	2438.77327
585.323	2199.6489
585.528	1691.81461
585.733	1870.39339
585.937	1964.88801
586.142	1653.57367
586.346	2331.76086
586.551	2155.18391
586.755	2217.11092
586.959	2886.28801
587.164	2688.90572
587.368	2244.83466
587.573	2603.64792
587.777	3871.98967
587.982	11973.02332
588.186	25111.34607
588.39	12262.01641
588.595	8300.77828
588.799	14955.68747
589.003	7167.48589
589.208	2864.30432
589.412	2337.22831
589.616	2031.20597
589.82	2072.88142
590.025	1550.66294
590.229	1610.10969
590.433	1522.09045
590.637	1552.11884
590.842	1963.78777
591.046	2222.45127
591.25	1846.14074
591.454	1412.27959
591.658	1666.09345
591.862	2495.59191
592.067	3728.87488
592.271	3140.13682
592.475	2514.06687
592.679	2648.56809
592.883	2298.33108
593.087	2480.18108
593.291	2050.02202
593.495	1838.97305
593.699	1713.65321
593.903	2315.42411
594.107	2965.69538
594.311	2850.39197
594.515	2595.88626
594.719	2283.69584
594.923	2062.92874
595.127	2323.76388
595.33	2126.32244
595.534	1619.04102
595.738	2225.18973
595.942	2128.2424
596.146	1722.28925
596.35	2080.77372
596.553	1917.7645
596.757	2091.95837
596.961	2717.80266
597.165	2132.1507
597.369	1589.33265
597.572	1722.56558
597.776	1667.61497
597.98	2402.25652
598.183	2791.25585
598.387	2473.29285
598.591	1973.96411
598.794	1887.95587
598.998	2025.16155
599.202	2333.19611
599.405	2597.99697
599.609	2383.4786
599.812	2604.53297
600.016	2514.88484
600.22	2785.82218
600.423	2728.27095
600.627	2508.27266
600.83	2006.61215
601.034	2572.39212
601.237	2892.80062
601.441	1782.35496
601.644	1938.13233
601.847	2494.77372
602.051	2245.24529
602.254	2070.82239
602.458	2413.04293
602.661	2823.51093
602.864	2290.12481
603.068	2093.05614
603.271	1844.14215
603.475	1791.66914
603.678	1939.09548
603.881	1849.17293
604.084	1561.33843
604.288	1695.75457
604.491	2309.20277
604.694	2268.30473
604.897	1658.41596
605.101	1891.81196
605.304	2075.4208
605.507	1708.60908
605.71	1497.52608
605.913	2096.14349
606.116	2192.45721
606.32	2073.36186
606.523	1858.06176
606.726	1834.28595
606.929	1960.07432
607.132	2008.67349
607.335	2182.25043
607.538	1797.25684
607.741	1660.2144
607.944	1449.74698
608.147	1498.91425
608.35	1651.91335
608.553	1590.02537
608.756	1671.41856
608.959	1823.94528
609.162	2255.78388
609.365	2094.70275
609.568	1950.30812
609.771	1452.52623
609.973	1903.92929
610.176	1890.57253
610.379	1611.35602
610.582	1578.10925
610.785	1858.68185
610.988	1800.01597
611.19	1456.9032
611.393	1432.1642
611.596	1355.35674
611.799	1370.39499
612.001	1762.61709
612.204	1449.12163
612.407	1471.48999
612.609	1606.99371
612.812	1780.21591
613.015	1734.51532
613.217	1730.85472
613.42	1443.90999
613.623	1543.66016
613.825	1837.5256
614.028	1939.78344
614.23	1567.71482
614.433	1422.77923
614.636	1621.87931
614.838	1923.68296
615.041	1999.67173
615.243	1228.78163
615.446	1147.1901
615.648	1110.99007
615.85	1300.3105
616.053	1015.60148
616.255	1415.20027
616.458	1312.16194
616.66	1233.18163
616.863	1079.8746
617.065	1264.94535
617.267	1424.93447
617.47	1293.96512
617.672	1233.11179
617.874	1133.26019
618.077	1147.47004
618.279	1304.98176
618.481	1416.24332
618.683	1029.36341
618.886	1021.07877
619.088	1665.47099
619.29	1553.92131
619.492	1140.47076
619.694	1132.49005
619.897	1311.81342
620.099	1041.78696
620.301	754.40467
620.503	750.15991
620.705	1052.663
620.907	1049.36543
621.109	1021.14898
621.311	1146.77017
621.513	1326.3096
621.715	1308.53715
621.917	1373.80571
622.119	1341.63669
622.321	1235.76553
622.523	1309.51309
622.725	1076.29892
622.927	1005.41721
623.129	1087.16516
623.331	1052.38237
623.533	963.73809
623.735	1168.25063
623.937	1254.0577
624.139	977.73007
624.341	1092.56208
624.542	793.50248
624.744	819.77848
624.946	1078.96319
625.148	1019.32331
625.35	1078.19197
625.551	885.24154
625.753	728.85733
625.955	926.23581
626.156	1022.76393
626.358	1086.60439
626.56	940.45321
626.762	1220.60895
626.963	1038.27789
627.165	930.88171
627.366	1082.81903
627.568	1054.90799
627.77	938.90505
627.971	1092.84242
628.173	1025.0809
628.374	891.65438
628.576	941.93094
628.777	1254.2671
628.979	792.23056
629.18	753.69725
629.382	731.33507
629.583	1047.96213
629.785	1044.38346
629.986	757.30495
630.188	807.27867
630.389	820.48455
630.591	932.57098
630.792	693.93732
630.993	602.17676
631.195	677.13722
631.396	707.25796
631.597	790.46392
631.799	755.46578
632	919.40666
632.201	732.46768
632.402	918.13926
632.604	973.0901
632.805	758.08304
633.006	895.882
633.207	971.96517
633.409	981.03393
633.61	770.52996
633.811	828.60333
634.012	937.56795
634.213	924.40544
634.414	889.0471
634.615	835.16758
634.816	1015.03966
635.017	940.2421
635.219	970.62928
635.42	963.52712
635.621	893.83871
635.822	1105.45559
636.023	942.2124
636.224	939.81988
636.425	883.33861
636.626	768.83292
636.826	722.27276
637.027	976.81618
637.228	795.90488
637.429	708.46223
637.63	792.93719
637.831	669.90418
638.032	706.40787
638.233	626.61459
638.433	651.0341
638.634	831.77974
638.835	758.08304
639.036	832.3444
639.237	544.70315
639.437	505.87802
639.638	661.88926
639.839	691.2442
640.039	587.81802
640.24	800.77982
640.441	640.95616
640.641	506.66212
640.842	698.75604
641.043	610.41948
641.243	516.49737
641.444	593.71868
641.645	807.70246
641.845	602.88742
642.046	656.35571
642.246	594.14519
642.447	426.43828
642.647	682.66731
642.848	858.09755
643.048	814.83559
643.249	713.70382
643.449	645.35677
643.65	531.24445
643.85	480.13426
644.05	749.02788
644.251	527.46929
644.451	686.4244
644.651	600.68432
644.852	617.09739
645.052	588.24461
645.252	617.94979
645.453	472.85652
645.653	514.57332
645.853	503.5256
646.054	567.47734
646.254	503.45431
646.454	432.94108
646.654	459.29538
646.854	565.4141
647.055	731.7598
647.255	464.36367
647.455	844.7647
647.655	619.37041
647.855	755.89021
648.055	595.28252
648.255	539.86153
648.455	696.20504
648.655	641.38205
648.856	726.52102
649.056	651.81466
649.256	701.23599
649.456	589.95092
649.656	593.36325
649.856	681.74569
650.055	657.56182
650.255	872.90593
650.455	833.1208
650.655	858.02701
650.855	1128.98923
651.055	1404.62926
651.255	1517.3729
651.455	1539.36089
651.655	1221.30754
651.854	1152.78867
652.054	862.96384
652.254	1076.15869
652.454	1415.13073
652.654	1415.40888
652.853	2190.53929
653.053	2972.54104
653.253	5586.83319
653.452	13820.03577
653.652	44841.29342
653.852	63137.14833
654.051	63137.14833
654.251	63137.14833
654.451	63137.14833
654.65	63137.14833
654.85	63137.14833
655.049	63137.14833
655.249	63137.14833
655.449	63137.14833
655.648	63137.14833
655.848	63137.14833
656.047	63137.14833
656.247	63137.14833
656.446	63137.14833
656.645	63137.14833
656.845	63137.14833
657.044	63137.14833
657.244	63137.14833
657.443	63137.14833
657.643	63137.14833
657.842	63137.14833
658.041	63137.14833
658.241	63137.14833
658.44	63137.14833
658.639	63137.14833
658.839	63137.14833
659.038	63137.14833
659.237	63137.14833
659.436	63137.14833
659.636	63137.14833
659.835	63137.14833
660.034	63137.14833
660.233	63137.14833
660.432	63137.14833
660.631	63137.14833
660.831	63137.14833
661.03	63137.14833
661.229	63137.14833
661.428	63137.14833
661.627	63137.14833
661.826	63137.14833
662.025	59317.71792
662.224	8717.28723
662.423	3139.25728
662.622	2524.69974
662.821	2377.87835
663.02	2257.90508
663.219	1817.67094
663.418	1944.46132
663.617	1834.56167
663.816	1644.30281
664.015	1352.78021
664.214	1318.92274
664.412	1277.71375
664.611	1354.45149
664.81	1283.7826
665.009	1370.60381
665.208	1161.11509
665.406	928.48844
665.605	1119.46542
665.804	944.46405
666.003	1083.66026
666.201	806.5017
666.4	877.55872
666.599	916.30848
666.798	836.22622
666.996	864.02164
667.195	747.54204
667.394	716.60759
667.592	977.23798
667.791	778.66045
667.989	941.50874
668.188	812.64637
668.386	1003.30978
668.585	793.85579
668.783	893.20457
668.982	909.75918
669.18	978.99541
669.379	759.85134
669.577	617.02636
669.776	638.25872
669.974	862.11757
670.173	714.69538
670.371	665.71965
670.57	645.42774
670.768	725.52981
670.966	788.20249
671.165	866.70126
671.363	711.08312
671.561	780.71045
671.76	941.29763
671.958	996.49493
672.156	775.05499
672.354	640.24633
672.553	671.46438
672.751	457.51058
672.949	596.77521
673.147	747.25901
673.345	558.15613
673.543	758.8611
673.742	448.94206
673.94	541.99763
674.138	551.82184
674.336	566.41017
674.534	509.72706
674.732	804.59451
674.93	618.16289
675.128	466.43357
675.326	501.81463
675.524	478.06527
675.722	691.17333
675.92	496.18204
676.118	443.37124
676.316	583.97847
676.514	586.60932
676.712	413.14251
676.91	569.96728
677.108	568.82905
677.305	693.15776
677.503	589.31106
677.701	561.07375
677.899	443.87123
678.097	559.43707
678.295	449.72761
678.492	457.86755
678.69	710.94146
678.888	480.49097
679.085	782.12416
679.283	492.83052
679.481	380.23531
679.679	462.43639
679.876	470.2875
680.074	540.43117
680.271	455.86846
680.469	420.00557
680.667	595.56685
680.864	520.2026
681.062	606.22732
681.259	607.36423
681.457	348.6533
681.654	579.78287
681.852	378.2311
682.049	414.00047
682.247	387.10588
682.444	359.61413
682.642	547.0525
682.839	331.73844
683.037	537.72528
683.234	638.75564
683.431	531.102
683.629	326.71945
683.826	420.57742
684.023	501.38688
684.221	669.6205
684.418	651.7437
684.615	754.19244
684.813	728.00778
685.01	743.08412
685.207	434.65587
685.404	324.35306
685.601	632.86318
685.799	738.05942
685.996	488.3375
686.193	445.72825
686.39	367.20553
686.587	510.79615
686.784	543.42162
686.981	617.45256
687.179	503.81075
687.376	321.77132
687.573	465.00606
687.77	553.88596
687.967	399.84089
688.164	434.44153
688.361	368.92407
688.558	494.75591
688.755	338.19016
688.952	686.56617
689.148	461.0087
689.345	417.86103
689.542	451.29864
689.739	455.15447
689.936	382.4541
690.133	531.52935
690.33	364.77076
690.526	498.89152
690.723	760.7001
690.92	553.88596
691.117	358.82623
691.314	322.12991
691.51	336.18311
691.707	413.71449
691.904	373.86431
692.1	634.70912
692.297	339.62369
692.494	405.49122
692.69	721.42305
692.887	611.4852
693.084	488.62279
693.28	389.53882
693.477	412.42751
693.673	387.89303
693.87	424.36566
694.066	320.69553
694.263	354.38496
694.459	372.21766
694.656	411.355
694.852	440.58545
695.049	424.72302
695.245	551.18122
695.442	438.94243
695.638	284.88496
695.834	368.85246
696.031	451.37005
696.227	453.08381
696.423	549.82877
696.62	519.41884
696.816	638.4007
697.012	357.96668
697.209	496.75248
697.405	561.99879
697.601	691.95294
697.797	423.29357
697.994	394.61876
698.19	280.71974
698.386	532.95381
698.582	533.73724
698.778	311.4421
698.974	241.40781
699.17	314.95731
699.367	385.81777
699.563	642.51774
699.759	231.1937
699.955	388.17926
700.151	359.32762
700.347	322.56021
700.543	451.58428
700.739	685.07757
700.935	350.08632
701.131	350.87445
701.327	325.64384
701.523	594.0741
701.718	337.47338
701.914	480.2056
702.11	531.03077
702.306	581.4185
702.502	420.00557
702.698	256.79403
702.894	356.31914
703.089	347.29187
703.285	395.04801
703.481	353.31036
703.677	462.57915
703.872	328.08183
704.068	321.6996
704.264	271.52542
704.459	164.06281
704.655	259.95652
704.851	284.4541
705.046	205.57031
705.242	152.66629
705.438	135.85146
705.633	284.4541
705.829	276.69759
706.024	389.68193
706.22	556.02112
706.415	459.8665
706.611	444.15693
706.806	548.19151
707.002	372.36085
707.197	436.37057
707.393	459.72372
707.588	295.08003
707.784	493.82889
707.979	270.37592
708.174	281.43793
708.37	299.17141
708.565	376.79944
708.76	313.59432
708.956	407.63663
709.151	338.76358
709.346	297.7359
709.542	235.3661
709.737	256.43463
709.932	482.34578
710.127	444.44263
710.322	291.92137
710.518	318.11347
710.713	239.25021
710.908	184.24775
711.103	301.75514
711.298	451.86991
711.493	238.53097
711.688	238.89059
711.883	270.59146
712.078	563.63534
712.273	502.884
712.468	228.81947
712.663	375.29612
712.858	428.43929
713.053	376.87102
713.248	436.72778
713.443	343.56553
713.638	249.60524
713.833	286.60832
714.028	318.97418
714.223	580.63625
714.418	701.30684
714.613	335.89638
714.807	644.43411
715.002	293.07001
715.197	360.04388
715.392	108.83965
715.587	245.363
715.781	339.26532
715.976	271.45358
716.171	496.11074
716.365	375.65406
716.56	400.55618
716.755	197.07204
716.949	303.83631
717.144	398.69639
717.339	320.91069
717.533	413.357
717.728	466.50494
717.922	201.03342
718.117	158.00448
718.312	432.94108
718.506	307.35244
718.701	670.04602
718.895	648.76329
719.089	450.37031
719.284	406.70697
719.478	303.69279
719.673	170.33612
719.867	458.43869
720.062	354.52823
720.256	288.76238
720.45	277.41587
720.645	184.82425
720.839	403.2026
721.033	436.01335
721.228	204.34614
721.422	358.68297
721.616	259.74091
721.81	334.74942
722.005	372.36085
722.199	491.2616
722.393	232.92028
722.587	215.50572
722.781	386.60495
722.975	461.79394
723.169	352.09243
723.364	365.5585
723.558	220.40015
723.752	321.6996
723.946	559.65056
724.14	314.38343
724.334	376.29834
724.528	334.39099
724.722	250.18041
724.916	512.43536
725.11	352.23572
725.304	373.0052
725.498	475.13992
725.692	335.60964
725.885	417.28913
726.079	608.71426
726.273	345.64374
726.467	301.82691
726.661	261.82511
726.855	439.22818
727.048	526.75694
727.242	290.91628
727.436	392.04312
727.63	320.40865
727.823	438.58524
728.017	232.27282
728.211	275.69196
728.405	440.58545
728.598	269.94485
728.792	303.04692
728.986	453.08381
729.179	410.56846
729.373	294.00325
729.566	392.47241
729.76	400.77076
729.953	369.49689
730.147	525.75963
730.34	403.63173
730.534	744.07482
730.727	460.79454
730.921	494.32805
731.114	533.95089
731.308	370.49931
731.501	400.84229
731.695	325.85896
731.888	396.04957
732.081	347.50684
732.275	348.08007
732.468	381.59524
732.661	451.01301
732.855	230.47425
733.048	302.6881
733.241	148.40942
733.434	533.02503
733.628	483.34448
733.821	526.32952
734.014	435.37034
734.207	496.82378
734.4	309.28972
734.594	394.40413
734.787	421.72109
734.98	394.04641
735.173	478.92142
735.366	237.16436
735.559	466.71906
735.752	225.0059
735.945	167.95676
736.138	234.43096
736.331	345.07045
736.524	517.2812
736.717	318.97418
736.91	389.46727
737.103	354.52823
737.296	326.57604
737.489	447.08523
737.682	123.64888
737.875	217.66513
738.067	388.75172
738.26	419.29074
738.453	390.18281
738.646	359.18437
738.839	398.83945
739.031	398.69639
739.224	342.06052
739.417	423.50799
739.61	530.67464
739.802	293.35717
739.995	190.0122
740.188	515.35721
740.38	344.56882
740.573	337.11497
740.765	284.95677
740.958	70.15325
741.151	429.01098
741.343	201.82562
741.536	228.67557
741.728	199.59298
741.921	298.74076
742.113	182.95058
742.306	250.68367
742.498	283.44874
742.691	378.87532
742.883	223.27883
743.076	257.00966
743.268	176.60803
743.46	454.36907
743.653	179.70741
743.845	384.38647
744.037	304.12336
744.23	244.5001
744.422	288.69058
744.614	259.74091
744.807	261.32204
744.999	342.41886
745.191	334.96448
745.383	338.97861
745.575	218.74478
745.768	347.57849
745.96	332.9572
746.152	360.90337
746.344	199.52096
746.536	460.72315
746.728	385.88933
746.92	436.51345
747.112	231.04981
747.304	339.26532
747.496	299.88913
747.688	218.02502
747.88	59.51385
748.072	452.29835
748.264	213.05819
748.456	268.5079
748.648	250.75556
748.84	263.90915
749.032	208.2345
749.224	419.8626
749.416	404.77604
749.608	480.63365
749.799	338.83526
749.991	396.40726
750.183	455.15447
750.375	222.48722
750.567	312.58997
750.758	130.65339
750.95	256.79403
751.142	254.70946
751.333	189.43581
751.525	353.66856
751.717	353.16707
751.908	606.72473
752.1	229.6109
752.292	292.4957
752.483	307.49595
752.675	290.70089
752.866	361.40473
753.058	583.12517
753.249	396.19264
753.441	384.45803
753.632	180.06778
753.824	223.63864
754.015	197.36016
754.207	501.95722
754.398	381.16579
754.589	234.35902
754.781	237.59593
754.972	301.3963
755.164	294.93646
755.355	317.32446
755.546	356.31914
755.738	252.19341
755.929	306.6349
756.12	518.92007
756.311	531.45812
756.503	325.57213
756.694	415.93081
756.885	358.18157
757.076	650.89218
757.267	648.40846
757.458	503.09786
757.65	422.07848
757.841	378.2311
758.032	655.50431
758.223	528.03915
758.414	544.27598
758.605	486.55437
758.796	300.60684
758.987	547.19487
759.178	302.90339
759.369	220.83197
759.56	323.34907
759.751	291.34704
759.942	395.83495
760.133	222.99097
760.324	371.0721
760.514	345.78706
760.705	517.42372
760.896	285.244
761.087	405.77728
761.278	255.71582
761.468	197.50422
761.659	408.56627
761.85	420.50594
762.041	178.33796
762.231	432.44091
762.422	233.27997
762.613	481.56106
762.803	263.76543
762.994	610.84577
763.185	214.56993
763.375	390.11125
763.566	277.05673
763.757	296.30032
763.947	295.94142
764.138	410.42545
764.328	477.56584
764.519	494.32805
764.709	330.44792
764.9	380.52162
765.09	334.74942
765.281	301.3963
765.471	221.69559
765.661	270.73515
765.852	285.45942
766.042	329.08565
766.232	93.2271
766.423	209.4585
766.613	306.13261
766.803	257.2253
766.994	324.99845
767.184	312.44649
767.374	585.04506
767.564	540.07514
767.755	365.91656
767.945	182.01371
768.135	247.59205
768.325	481.27571
768.515	387.249
768.706	330.37622
768.896	415.64484
769.086	430.01142
769.276	365.12883
769.466	276.05112
769.656	320.83897
769.846	333.38735
770.036	386.74807
770.226	362.83713
770.416	299.31495
770.606	433.72704
770.796	568.11763
770.986	378.66058
771.176	236.15735
771.366	349.94302
771.555	391.04143
771.745	226.66091
771.935	411.85551
772.125	282.6588
772.315	246.72922
772.504	448.22791
772.694	161.75503
772.884	396.04957
773.074	123.07111
773.263	341.70218
773.453	271.74095
773.643	516.63988
773.832	381.73838
774.022	440.94262
774.212	273.32142
774.401	192.31765
774.591	91.34721
774.781	132.96376
774.97	342.70553
775.16	192.67786
775.349	168.38939
775.539	236.94858
775.728	128.34282
775.918	342.70553
776.107	568.82905
776.297	982.01801
776.486	1930.6329
776.675	2335.3831
776.865	1690.01733
777.054	670.75521
777.243	459.36677
777.433	430.58308
777.622	436.01335
777.811	382.74039
778.001	436.87067
778.19	266.7116
778.379	173.00366
778.568	389.82504
778.758	268.29235
778.947	326.1458
779.136	343.06387
779.325	375.29612
779.514	108.18931
779.703	464.14953
779.892	181.50922
780.082	238.24327
780.271	134.91299
780.46	373.07679
780.649	344.78381
780.838	309.14622
781.027	166.44251
781.216	146.82195
781.405	134.11887
781.594	349.51312
781.783	465.71983
781.971	478.92142
782.16	257.58468
782.349	605.44568
782.538	161.53867
782.727	429.22536
782.916	215.1458
783.105	435.65612
783.293	253.70307
783.482	489.05072
783.671	389.82504
783.86	305.41504
784.048	163.70224
784.237	74.49466
784.426	177.54508
784.614	263.2624
784.803	265.77748
784.992	45.82843
785.18	198.2245
785.369	347.22021
785.557	236.80472
785.746	362.62227
785.935	321.6996
786.123	232.41671
786.312	96.33587
786.5	360.33038
786.689	295.15181
786.877	295.22359
787.065	400.12701
787.254	23.1488
787.442	119.74869
787.631	289.69575
787.819	368.35123
788.007	451.58428
788.196	355.38788
788.384	453.0124
788.572	458.2959
788.761	145.37871
788.949	203.77004
789.137	271.6691
789.325	215.43374
789.513	190.51653
789.702	247.44825
789.89	361.18986
790.078	163.48589
790.266	139.67719
790.454	230.76203
790.642	178.33796
790.83	420.36298
791.018	258.15969
791.207	202.83386
791.395	433.65559
791.583	152.01698
791.771	418.64738
791.959	215.50572
792.146	184.31981
792.334	137.80048
792.522	244.5001
792.71	237.30822
792.898	278.20596
793.086	457.43918
793.274	201.17746
793.462	466.00533
793.65	481.13303
793.837	136.42896
794.025	393.68869
794.213	126.39312
794.401	435.22745
794.588	208.9545
794.776	98.93828
794.964	49.30475
795.151	365.12883
795.339	299.24318
795.527	187.20218
795.714	50.68067
795.902	211.90634
796.089	196.78392
796.277	82.66909
796.465	394.04641
796.652	267.07087
796.84	167.88465
797.027	312.01604
797.215	181.0768
797.402	392.6155
797.59	446.2282
797.777	190.51653
797.964	100.02255
798.152	182.37405
798.339	398.91099
798.526	109.77901
798.714	124.22664
798.901	209.3145
799.088	348.51
799.276	196.13563
799.463	242.7023
799.65	153.53201
799.837	230.04258
800.025	94.96227
800.212	313.45085
800.399	258.08782
800.586	154.83054
800.773	174.22919
800.96	126.17648
801.148	381.38051
801.335	320.69553
801.522	384.24333
801.709	105.73231
801.896	296.3721
802.083	175.02216
802.27	142.85286
802.457	211.33039
802.644	186.3375
802.831	194.76698
803.018	156.48969
803.204	160.24045
803.391	252.62475
803.578	126.89861
803.765	172.28273
803.952	383.52765
804.139	159.8077
804.326	262.83122
804.512	244.5001
804.699	355.74606
804.886	157.78809
805.073	125.81541
805.259	226.80481
805.446	665.365
805.633	332.74213
805.819	426.93854
806.006	374.22227
806.192	266.49604
806.379	132.45838
806.566	114.54757
806.752	299.38673
806.939	169.18252
807.125	86.28531
807.312	236.44507
807.498	326.28921
807.685	330.66301
807.871	205.21027
808.058	323.77936
808.244	296.87456
808.43	302.90339
808.617	287.25455
808.803	291.99316
808.99	180.86058
809.176	214.21
809.362	193.97457
809.549	216.80139
809.735	224.79002
809.921	55.60444
810.107	320.05004
810.293	170.19193
810.48	342.70553
810.666	262.68749
810.852	278.49326
811.038	170.19193
811.224	170.76871
811.41	242.84613
811.597	397.2657
811.783	38.72953
811.969	155.98474
812.155	46.33542
812.341	198.94476
812.527	252.62475
812.713	259.52529
812.899	144.07973
813.085	193.8305
813.271	296.731
813.456	319.40453
813.642	128.41503
813.828	156.99463
814.014	406.85
814.2	236.517
814.386	220.61606
814.572	92.64868
814.757	305.34328
814.943	475.63939
815.129	301.82691
815.315	287.75717
815.5	235.07837
815.686	338.76358
815.872	60.88925
816.057	142.78069
816.243	435.22745
816.429	174.8059
816.614	186.69779
816.8	135.63489
816.985	193.32622
817.171	206.72242
817.356	278.70873
817.542	299.53027
817.727	328.87055
817.913	105.58777
818.098	182.30198
818.284	123.57666
818.469	191.52517
818.655	188.35504
818.84	357.17874
819.025	86.57459
819.211	368.27963
819.396	421.43518
819.581	104.50373
819.767	133.18035
819.952	285.17219
820.137	339.33699
820.322	350.9461
820.508	590.80403
820.693	293.93146
820.878	221.98346
821.063	245.363
821.248	373.0052
821.433	104.28691
821.618	308.35697
821.804	143.71889
821.989	111.29637
822.174	280.79156
822.359	470.85842
822.544	-8.69329
822.729	312.23127
822.914	51.11516
823.099	159.23068
823.284	177.68924
823.469	216.29753
823.653	258.59094
823.838	248.09536
824.023	195.8475
824.208	172.06644
824.393	302.25751
824.578	239.5379
824.762	18.00154
824.947	181.0768
825.132	237.02051
825.317	216.15356
825.501	244.71583
825.686	232.99222
825.871	155.6962
826.056	290.48551
826.24	297.01812
826.425	370.21291
826.609	70.4427
826.794	82.09045
826.979	200.31321
827.163	199.665
827.348	98.2877
827.532	101.32361
827.717	185.54485
827.901	235.72576
828.086	242.91804
828.27	160.74532
828.455	274.32713
828.639	340.48377
828.823	277.4877
829.008	124.94882
829.192	105.15416
829.376	260.81896
829.561	89.97336
829.745	145.45087
829.929	8.57438
830.114	235.65383
830.298	479.06411
830.482	168.24518
830.666	318.54383
830.85	145.88385
831.035	233.56773
831.219	23.00382
831.403	44.37982
831.587	90.84106
831.771	383.74236
831.955	219.03267
832.139	118.6652
832.323	261.82511
832.507	57.26963
832.691	150.71831
832.875	3.42428
833.059	74.20526
833.243	3.06156
833.427	156.34542
833.611	157.3553
833.795	67.25859
833.979	241.40781
834.163	126.75419
834.346	338.54855
834.53	188.21094
834.714	276.26661
834.898	194.47883
835.082	157.42743
835.265	307.63945
835.449	119.96538
835.633	29.30971
835.816	197.14407
836	102.33551
836.184	229.10726
836.367	307.06543
836.551	278.27779
836.735	318.54383
836.918	15.17374
837.102	203.554
837.285	154.32556
837.469	183.31091
837.652	310.72466
837.836	108.04478
838.019	95.61293
838.203	212.77023
838.386	68.34413
838.569	79.70344
838.753	438.5138
838.936	88.81638
839.12	129.2093
839.303	229.39506
839.486	226.58895
839.669	91.34721
839.853	187.13012
840.036	147.68785
840.219	133.25254
840.402	22.13393
840.586	174.51755
840.769	206.57841
840.952	1.39298
841.135	344.2105
841.318	106.09365
841.501	103.92555
841.684	2.26356
841.868	326.28921
842.051	200.45725
842.234	257.58468
842.417	69.06779
842.6	240.61671
842.783	239.82558
842.966	236.87665
843.149	530.31851
843.331	228.09996
843.514	765.65074
843.697	964.37101
843.88	946.99698
844.063	613.47444
844.246	360.1155
844.429	251.25882
844.611	228.31582
844.794	316.10505
844.977	256.50651
845.16	315.31598
845.342	262.68749
845.525	234.28709
845.708	30.17937
845.89	194.33476
846.073	64.79789
846.256	215.07382
846.438	149.56389
846.621	436.01335
846.803	171.0571
846.986	50.89791
847.168	146.96627
847.351	322.12991
847.533	232.92028
847.716	306.92192
847.898	320.48037
848.081	-11.45136
848.263	165.0003
848.446	51.69446
848.628	281.22247
848.81	108.76739
848.993	109.41772
849.175	49.88409
849.357	177.54508
849.539	169.25462
849.722	92.35947
849.904	27.35287
850.086	206.5064
850.268	402.05823
850.451	421.72109
850.633	277.91866
850.815	87.80398
850.997	454.15486
851.179	109.77901
851.361	188.64325
851.543	135.41832
851.725	269.01084
851.907	136.71771
852.089	322.91879
852.271	123.35999
852.453	374.86658
852.635	244.85965
852.817	153.31558
852.999	150.06895
853.181	124.44329
853.363	159.51919
853.545	182.59025
853.727	152.81057
853.908	90.11798
854.09	253.77495
854.272	426.29534
854.454	173.21993
854.636	303.4775
854.817	80.78847
854.999	274.61447
855.181	210.39446
855.362	168.6057
855.544	89.46718
855.726	265.13077
855.907	146.46114
856.089	119.17083
856.27	183.31091
856.452	169.97563
856.634	311.9443
856.815	211.04242
856.997	269.94485
857.178	108.47835
857.36	1.53808
857.541	17.63902
857.722	130.36458
857.904	230.11453
858.085	155.84047
858.267	267.28643
858.448	163.77435
858.629	197.07204
858.811	64.14649
858.992	197.50422
859.173	228.81947
859.354	196.35173
859.536	365.34366
859.717	12.20061
859.898	165.21663
860.079	162.62047
860.26	197.57624
860.441	290.05474
860.623	148.26511
860.804	106.31045
860.985	204.77821
861.166	159.95195
861.347	-17.69437
861.528	1.24788
861.709	311.65733
861.89	149.56389
862.071	296.51566
862.252	195.27123
862.433	92.43178
862.614	535.94497
862.794	77.17152
862.975	226.44504
863.156	432.65527
863.337	146.38898
863.518	260.67522
863.699	163.77435
863.879	308.42872
864.06	134.8408
864.241	211.97833
864.422	174.44546
864.602	91.20259
864.783	340.9138
864.964	77.09918
865.144	158.14874
865.325	133.18035
865.506	219.10465
865.686	139.60501
865.867	202.76184
866.047	178.62627
866.228	225.22177
866.408	85.56211
866.589	244.06864
866.769	274.9018
866.95	154.3977
867.13	110.14029
867.31	189.00351
867.491	189.8681
867.671	-3.61339
867.852	74.71172
868.032	304.84096
868.212	243.06187
868.393	309.43322
868.573	89.17794
868.753	98.93828
868.933	147.76001
869.113	191.95743
869.294	178.12172
869.474	245.21919
869.654	129.35371
869.834	182.59025
870.014	194.83902
870.194	39.59888
870.374	207.15445
870.555	120.2543
870.735	112.09114
870.915	178.77042
871.095	161.03381
871.275	236.94858
871.455	279.42697
871.634	90.3349
871.814	263.04681
871.994	162.98107
872.174	221.11985
872.354	389.68193
872.534	128.99268
872.714	142.05898
872.894	113.03039
873.073	192.96602
873.253	263.98101
873.433	31.84614
873.613	26.62808
873.792	259.81278
873.972	132.53058
874.152	101.54045
874.331	219.60846
874.511	342.49053
874.691	86.71922
874.87	68.27176
875.05	90.26259
875.229	116.8593
875.409	212.48227
875.588	74.78407
875.768	220.25621
875.947	430.79745
876.127	312.30301
876.306	215.00184
876.486	143.28588
876.665	187.99478
876.844	193.18214
877.024	438.01373
877.203	210.61045
877.382	121.77108
877.562	70.08089
877.741	168.46149
877.92	231.84118
878.1	267.50198
878.279	113.60837
878.458	126.32091
878.637	115.41449
878.816	265.05891
878.996	203.98608
879.175	194.4068
879.354	122.1322
879.533	290.6291
879.712	156.41756
879.891	205.64232
880.07	280.07336
880.249	254.35004
880.428	137.43956
880.607	303.62103
880.786	44.66955
880.965	309.07447
881.144	222.05543
881.323	45.0317
881.502	135.34613
881.68	148.48158
881.859	83.75401
882.038	244.42819
882.217	163.19742
882.396	13.57844
882.574	105.08189
882.753	177.54508
882.932	147.47138
883.111	288.11618
883.289	165.79352
883.468	173.43621
883.647	153.53201
883.825	259.59717
884.004	248.38296
884.182	180.21193
884.361	154.25342
884.539	125.09325
884.718	262.0407
884.896	-4.04877
885.075	107.53895
885.253	325.14187
885.432	132.31399
885.61	53.35989
885.789	113.24714
885.967	111.80214
886.145	304.91272
886.324	219.89635
886.502	121.69885
886.68	232.41671
886.859	86.57459
887.037	287.82897
887.215	156.05688
887.393	377.37211
887.572	39.67133
887.75	248.45486
887.928	239.68174
888.106	254.0625
888.284	300.17622
888.462	210.39446
888.64	121.8433
888.819	182.80645
888.997	240.97631
889.175	106.31045
889.353	22.56888
889.531	172.85947
889.709	133.18035
889.887	123.35999
890.065	300.96569
890.242	251.97774
890.42	345.14211
890.598	154.97482
890.776	278.27779
890.954	120.18207
891.132	79.19707
891.309	87.0085
891.487	252.84041
891.665	148.7702
891.843	149.05881
892.02	66.17302
892.198	217.01733
892.376	197.36016
892.553	276.62576
892.731	378.87532
892.909	217.95304
893.086	331.88182
893.264	164.56762
893.441	162.76471
893.619	114.47532
893.797	160.31257
893.974	185.40073
894.151	206.00236
894.329	113.75287
894.506	60.67208
894.684	137.15082
894.861	217.73711
895.039	67.62044
895.216	103.27509
895.393	206.79443
895.571	-7.02407
895.748	93.3717
895.925	418.004
896.102	259.66904
896.28	99.37199
896.457	68.12702
896.634	106.52724
896.811	50.97033
896.988	105.58777
897.166	169.54303
897.343	109.12869
897.52	247.59205
897.697	115.12552
897.874	316.03331
898.051	277.05673
898.228	150.57401
898.405	73.62644
898.582	-3.61339
898.759	91.85334
898.936	283.8078
899.113	278.27779
899.29	279.78608
899.467	309.50497
899.643	277.99048
899.82	293.28538
899.997	263.19053
900.174	-62.09178
900.351	253.70307
900.527	172.78738
900.704	188.21094
900.881	381.73838
901.058	64.21887
901.234	183.7433
901.411	267.28643
901.588	178.41003
901.764	275.04547
901.941	279.57061
902.117	161.03381
902.294	155.04696
902.471	320.91069
902.647	52.6358
902.824	82.74142
903	208.9545
903.176	165.0003
903.353	292.42391
903.529	80.4268
903.706	233.20804
903.882	125.59877
904.058	44.45226
904.235	21.48149
904.411	19.16157
904.587	193.61438
904.764	162.90895
904.94	105.87684
905.116	161.68291
905.292	218.6728
905.469	198.94476
905.645	166.08196
905.821	308.85922
905.997	57.19723
906.173	90.76875
906.349	92.35947
906.525	189.00351
906.702	142.13115
906.878	84.04331
907.054	83.32005
907.23	202.83386
907.406	111.51313
907.582	357.03547
907.757	150.79046
907.933	85.56211
908.109	222.63115
908.285	172.28273
908.461	208.7385
908.637	27.13544
908.813	120.68767
908.988	191.02086
909.164	218.31292
909.34	186.12133
909.516	103.34736
909.691	64.50838
909.867	250.10851
910.043	202.90587
910.219	238.38712
910.394	304.84096
910.57	231.33758
910.745	346.71862
910.921	279.64243
911.097	36.70093
911.272	-22.3413
911.448	328.79885
911.623	63.42269
911.799	33.00558
911.974	-3.97621
912.149	116.93154
912.325	170.48032
912.5	145.52304
912.676	113.10264
912.851	65.59402
913.026	244.35628
913.202	36.99074
913.377	132.89156
913.552	25.97575
913.727	411.21199
913.903	190.87676
914.078	103.85328
914.253	197.2161
914.428	144.29623
914.603	-60.12826
914.779	64.94264
914.954	132.09739
915.129	268.79529
915.304	216.72941
915.479	153.09915
915.654	150.86261
915.829	241.19206
916.004	1.39298
916.179	302.04221
916.354	28.94735
916.529	254.70946
916.704	160.0962
916.879	224.6461
917.053	330.66301
917.228	74.42231
917.403	195.55936
917.578	312.80519
917.753	189.57991
917.927	39.23666
918.102	85.27282
918.277	82.88608
918.452	133.10815
918.626	76.59276
918.801	267.57384
918.976	156.7061
919.15	114.18634
919.325	238.67482
919.499	189.07556
919.674	247.23254
919.849	178.41003
920.023	271.38174
920.198	231.40952
920.372	134.55203
920.547	229.6109
920.721	16.3339
920.895	257.29717
921.07	116.64258
921.244	263.98101
921.419	297.37701
921.593	90.69644
921.767	181.00472
921.942	234.86257
922.116	-26.33541
922.29	128.05398
922.464	153.74844
922.639	86.50227
922.813	64.58076
922.987	258.51907
923.161	44.88684
923.335	191.38108
923.509	199.88107
923.683	226.22917
923.858	186.12133
924.032	319.04591
924.206	217.30524
924.38	-11.7417
924.554	88.74406
924.728	115.99242
924.902	395.76341
925.075	218.74478
925.249	146.24466
925.423	295.22359
925.597	151.1512
925.771	128.55944
925.945	114.25859
926.119	458.65286
926.292	214.7139
926.466	173.94084
926.64	156.77823
926.814	265.05891
926.987	-11.45136
927.161	73.26467
927.335	18.87157
927.508	245.65063
927.682	-68.05596
927.856	79.92045
928.029	282.01246
928.203	282.94605
928.376	234.86257
928.55	72.83054
928.723	13.72347
928.897	173.94084
929.07	114.83655
929.244	273.75244
929.417	-46.31513
929.59	183.23885
929.764	89.90105
929.937	264.05288
930.111	312.37475
930.284	41.12018
930.457	16.98647
930.63	80.49913
930.804	163.9907
930.977	154.90268
931.15	158.65365
931.323	382.38253
931.497	91.92565
931.67	174.08502
931.843	292.20854
932.016	-4.12133
932.189	161.46655
932.362	227.09263
932.535	285.02857
932.708	208.6665
932.881	109.70675
933.054	225.65352
933.227	266.63975
933.4	48.14602
933.573	133.54132
933.746	90.69644
933.919	218.31292
934.092	162.11564
934.264	122.4211
934.437	129.42592
934.61	59.29667
934.783	131.01439
934.956	69.71908
935.128	182.80645
935.301	314.95731
935.474	108.76739
935.646	-1.14636
935.819	149.56389
935.992	178.41003
936.164	41.04774
936.337	62.48172
936.51	104.576
936.682	159.23068
936.855	63.20555
937.027	339.19364
937.2	203.0499
937.372	71.52811
937.545	160.88957
937.717	135.27394
937.889	139.53283
938.062	240.04135
938.234	247.59205
938.406	118.59297
938.579	184.68012
938.751	244.5001
938.923	232.56059
939.096	337.33002
939.268	208.5225
939.44	152.522
939.612	240.83247
939.784	230.33036
939.957	206.21838
940.129	237.23629
940.301	204.77821
940.473	147.76001
940.645	302.04221
940.817	297.37701
940.989	138.66667
941.161	105.15416
941.333	253.05608
941.505	64.436
941.677	155.55192
941.849	49.522
942.021	166.15407
942.193	41.26507
942.365	45.46628
942.537	165.86563
942.708	285.81846
942.88	218.16897
943.052	27.35287
943.224	82.45211
943.395	117.00378
943.567	111.87439
943.739	180.284
943.911	67.62044
944.082	105.87684
944.254	335.53796
944.425	1.32043
944.597	128.77606
944.769	200.9614
944.94	199.52096
945.112	381.30894
945.283	357.322
945.455	77.31621
945.626	175.59885
945.798	108.26157
945.969	177.25676
946.14	242.77421
946.312	224.6461
946.483	137.7283
946.655	141.33725
946.826	222.41526
946.997	271.38174
947.168	-15.37121
947.34	92.79329
947.511	266.49604
947.682	132.09739
947.853	79.48642
948.025	254.56569
948.196	59.94819
948.367	148.48158
948.538	59.51385
948.709	196.56782
948.88	99.87798
949.051	207.73048
949.222	101.61273
949.393	218.16897
949.564	169.25462
949.735	66.752
949.906	55.82164
950.077	57.26963
950.248	222.99097
950.419	64.29124
950.59	62.48172
950.761	39.38155
950.931	293.35717
951.102	245.93826
951.273	169.03831
951.444	200.60129
951.614	263.2624
951.785	102.40778
951.956	173.79666
952.126	275.26097
952.297	482.91647
952.468	80.93314
952.638	72.03462
952.809	121.91553
952.98	113.68062
953.15	110.50157
953.321	-1.07381
953.491	20.75654
953.662	150.35756
953.832	92.50408
954.002	84.18796
954.173	-116.47518
954.343	196.0636
954.514	8.28426
954.684	38.36729
954.854	201.24948
955.025	165.21663
955.195	133.46913
955.365	163.77435
955.535	49.01507
955.706	304.0516
955.876	192.96602
956.046	280.64792
956.216	215.72167
956.386	203.0499
956.557	184.03156
956.727	46.62512
956.897	175.74302
957.067	102.69689
957.237	125.45433
957.407	245.07537
957.577	175.31051
957.747	117.07601
957.917	83.24772
958.087	4.22225
958.257	211.61837
958.427	125.52655
958.596	-38.03077
958.766	255.42829
958.936	-75.11293
959.106	265.92119
959.276	87.15313
959.445	83.97099
959.615	180.13985
959.785	249.17385
959.955	370.57091
960.124	185.32867
960.294	235.29417
960.464	77.38855
960.633	39.01932
960.803	120.18207
960.972	146.02817
961.142	12.12809
961.311	110.28481
961.481	154.3977
961.65	215.43374
961.82	188.28299
961.989	355.0297
962.159	215.79365
962.328	333.60241
962.498	298.66899
962.667	-73.14843
962.836	102.76916
963.006	219.17662
963.175	142.85286
963.344	222.12739
963.513	86.14067
963.683	-63.4736
963.852	106.16591
964.021	93.8055
964.19	63.85697
964.359	81.58413
964.528	164.56762
964.698	-4.1939
964.867	106.74404
965.036	162.47624
965.205	335.96806
965.374	209.0265
965.543	220.47212
965.712	156.48969
965.881	132.38618
966.05	78.25666
966.219	134.04668
966.387	198.15247
966.556	223.78257
966.725	118.30403
966.894	231.76924
967.063	131.1588
967.232	201.32149
967.4	21.98894
967.569	64.79789
967.738	322.34506
967.906	65.6664
968.075	218.31292
968.244	22.56888
968.412	61.54073
968.581	217.66513
968.75	125.45433
968.918	122.70999
969.087	81.58413
969.255	196.2797
969.424	195.4153
969.592	280.5761
969.761	144.44056
969.929	178.69835
970.098	196.49579
970.266	-59.32835
970.434	94.0947
970.603	195.91953
970.771	184.75219
970.939	151.51195
971.108	281.00702
971.276	73.8435
971.444	204.85022
971.612	-101.10218
971.781	101.03449
971.949	570.25183
972.117	156.05688
972.285	300.82215
972.453	-46.38781
972.621	76.44807
972.789	121.19327
972.957	326.64774
973.125	35.4692
973.293	122.05998
973.461	165.86563
973.629	335.96806
973.797	72.97525
973.965	175.88719
974.133	98.866
974.301	148.48158
974.469	9.29966
974.637	140.11026
974.805	345.78706
974.972	204.34614
975.14	292.13675
975.308	147.68785
975.476	46.5527
975.643	241.3359
975.811	37.4979
975.979	391.54228
976.146	151.72839
976.314	269.15453
976.482	132.89156
976.649	56.98004
976.817	206.72242
976.984	245.65063
977.152	91.49182
977.319	315.60292
977.487	311.72907
977.654	215.72167
977.822	10.96774
977.989	154.61412
978.156	101.25133
978.324	163.70224
978.491	90.84106
978.658	-31.27443
978.826	183.9595
978.993	178.69835
979.16	135.63489
979.328	103.34736
979.495	218.24095
979.662	23.72871
979.829	57.8488
979.996	283.95143
980.163	244.14055
980.33	15.5363
980.498	113.53613
980.665	262.97494
980.832	-45.80636
980.999	177.68924
981.166	111.29637
981.333	282.29972
981.5	195.4153
981.667	504.73747
981.833	-31.41971
982	302.6881
982.167	23.36627
982.334	148.26511
982.501	115.84794
982.668	178.48211
982.834	-4.48416
983.001	269.44193
983.168	312.01604
983.335	108.83965
983.501	108.26157
983.668	83.82634
983.835	108.83965
984.001	249.53334
984.168	51.54964
984.334	250.89935
984.501	131.01439
984.668	88.961
984.834	56.32845
985.001	-47.84148
985.167	271.45358
985.334	-1.36403
985.5	61.46834
985.666	39.09176
985.833	-35.92377
985.999	113.75287
986.165	157.49956
986.332	315.24425
986.498	161.61079
986.664	176.10344
986.831	160.88957
986.997	139.67719
987.163	11.04027
987.329	114.7643
987.495	-53.51158
987.662	236.87665
987.828	4.80257
987.994	254.35004
988.16	242.05506
988.326	135.70708
988.492	79.55876
988.658	232.12894
988.824	190.0122
988.99	66.46251
989.156	43.43819
989.322	399.05405
989.488	192.10152
989.654	108.76739
989.82	133.18035
989.985	312.23127
990.151	202.97789
990.317	376.5131
990.483	-9.20133
990.648	253.41552
990.814	153.09915
990.98	188.93146
991.146	201.46553
991.311	294.50575
991.477	203.33796
991.643	23.36627
991.808	25.25092
991.974	-46.38781
992.139	127.90956
992.305	131.592
992.47	48.72539
992.636	202.18571
992.801	277.99048
992.967	156.77823
993.132	106.52724
993.298	485.84109
993.463	64.14649
993.628	139.82154
993.794	66.60725
993.959	313.66606
994.124	12.12809
994.29	163.26954
994.455	256.43463
994.62	184.10362
994.785	272.31567
994.95	80.4268
995.116	232.84834
995.281	158.50939
995.446	109.05643
995.611	-18.56561
995.776	28.8024
995.941	239.75366
996.106	68.92306
996.271	171.0571
996.436	196.85595
996.601	289.12137
996.766	84.62191
996.931	197.00001
997.096	153.45987
997.261	67.83755
997.425	240.11327
997.59	106.02138
997.755	93.1548
997.92	105.37097
998.085	118.73744
998.249	67.62044
998.414	4.51241
998.579	-26.98905
998.744	111.22412
998.908	242.27081
999.073	286.75193
999.237	249.10195
999.402	51.18757
999.567	113.89736
999.731	147.39922
999.896	-26.33541
1000.06	290.91628
1000.225	171.1292
1000.389	165.86563
1000.553	226.517
1000.718	263.11867
1000.882	-61.8736
1001.047	124.15442
1001.211	69.64671
1001.375	330.08944
1001.54	107.24989
1001.704	64.79789
1001.868	309.07447
1002.032	363.05198
1002.197	148.7702
1002.361	61.61311
1002.525	163.558
1002.689	182.80645
1002.853	70.65979
1003.017	31.55628
1003.181	71.81754
1003.345	118.30403
1003.509	297.30523
1003.673	188.64325
1003.837	269.01084
1004.001	122.27665
1004.165	138.81103
1004.329	252.48097
1004.493	172.93156
1004.657	154.037
1004.821	46.76997
1004.985	222.34329
1005.149	169.18252
1005.312	190.0122
1005.476	160.6732
1005.64	408.99532
1005.804	113.31938
1005.967	223.35079
1006.131	224.6461
1006.295	213.41814
1006.458	207.37046
1006.622	157.3553
1006.785	152.522
1006.949	302.75986
1007.113	118.59297
1007.276	99.51656
1007.44	248.88626
1007.603	28.72992
1007.767	175.31051
1007.93	79.70344
1008.093	99.37199
1008.257	159.44706
1008.42	-41.95461
1008.584	208.09049
1008.747	131.01439
1008.91	135.77927
1009.073	26.33816
1009.237	154.7584
1009.4	187.85067
1009.563	-57.29233
1009.726	114.7643
1009.889	397.19417
1010.053	183.67124
1010.216	110.79059
1010.379	256.36275
1010.542	397.90952
1010.705	248.31106
1010.868	254.0625
1011.031	218.74478
1011.194	138.30576
1011.357	179.85156
1011.52	56.69044
1011.683	67.25859
1011.846	148.48158
1012.009	217.59315
1012.171	156.77823
1012.334	207.94649
1012.497	285.02857
1012.66	116.4981
1012.823	154.97482
1012.985	333.17228
1013.148	242.34273
1013.311	160.3847
1013.473	152.3777
1013.636	58.28317
1013.799	234.79063
1013.961	228.60362
1014.124	130.58118
1014.286	213.85006
1014.449	17.78403
1014.612	283.01787
1014.774	52.6358
1014.936	147.54354
1015.099	-11.37877
1015.261	-6.4435
1015.424	180.93265
1015.586	191.23699
1015.748	84.91121
1015.911	-11.37877
1016.073	527.18435
1016.235	244.5001
1016.398	187.05807
1016.56	315.31598
1016.722	-6.9515
1016.884	72.61347
1017.047	199.9531
1017.209	183.88743
1017.371	37.71525
1017.533	81.43947
1017.695	313.09215
1017.857	255.21265
1018.019	314.31169
1018.181	248.81436
1018.343	97.63711
1018.505	149.41958
1018.667	-79.33349
1018.829	66.752
1018.991	192.7499
1019.153	201.53755
1019.315	-50.96715
1019.477	59.0795
1019.638	54.51839
1019.8	9.73482
1019.962	231.12175
1020.124	125.7432
1020.285	120.18207
1020.447	171.63387
1020.609	81.5118
1020.77	101.17905
1020.932	442.08552
1021.094	76.95449
1021.255	52.34616
1021.417	366.77588
1021.578	26.41064
1021.74	171.99435
1021.901	116.78706
1022.063	124.15442
1022.224	219.75241
1022.386	203.69803
1022.547	167.74044
1022.709	190.37244
1022.87	278.78056
1023.031	194.11865
1023.193	57.41442
1023.354	224.35826
1023.515	191.38108
1023.676	222.34329
1023.838	172.93156
1023.999	149.20312
1024.16	187.99478
1024.321	259.09406
1024.482	212.55426
1024.644	390.39746
1024.805	247.66395
1024.966	116.1369
1025.127	25.39589
1025.288	108.04478
1025.449	320.69553
1025.61	155.19124
1025.771	242.63039
1025.932	311.58559
1026.093	247.87966
1026.253	146.24466
1026.414	-96.95087
1026.575	100.60081
1026.736	4.65749
1026.897	106.81631
1027.058	212.62625
1027.218	157.42743
1027.379	-15.95198
1027.54	193.25418
1027.7	131.3754
1027.861	274.18346
1028.022	189.57991
1028.182	145.37871
1028.343	138.66667
1028.504	65.6664
1028.664	119.96538
1028.825	168.02886
1028.985	172.64319
1029.146	83.60936
1029.306	76.01399
1029.466	343.78052
1029.627	252.84041
1029.787	124.65995
1029.948	97.34795
1030.108	148.98666
1030.268	255.64394
1030.429	30.1069
1030.589	122.20443
1030.749	99.37199
1030.909	122.63777
1031.07	218.81675
1031.23	150.06895
1031.39	-6.87892
1031.55	206.07436
1031.71	-25.89966
1031.87	123.50444
1032.03	242.55847
1032.19	122.34888
1032.35	127.83735
1032.51	230.76203
1032.67	54.08396
1032.83	98.866
1032.99	151.51195
1033.15	260.89083
1033.31	243.99673
1033.47	-0.20315
1033.63	189.724
1033.79	138.73885
1033.949	35.75902
1034.109	230.33036
1034.269	125.23769
1034.429	314.67037
1034.588	232.48865
1034.748	100.96221
1034.908	169.83143
1035.067	171.1292
1035.227	146.38898
1035.387	186.55367
1035.546	352.73722
1035.706	52.56339
1035.865	247.01683
1036.025	120.03761
1036.184	127.33188
1036.344	160.52895
1036.503	275.1173
1036.662	67.11385
1036.822	207.58647
1036.981	91.63643
1037.14	180.71644
1037.3	62.11981
1037.459	129.93135
1037.618	219.60846
1037.778	251.11503
1037.937	172.71529
1038.096	160.31257
1038.255	181.29301
1038.414	104.0701
1038.573	346.64696
1038.733	206.72242
1038.892	229.39506
1039.051	331.37997
1039.21	318.11347
1039.369	35.61411
1039.528	240.61671
1039.687	212.12231
1039.846	227.09263
1040.005	93.8055
1040.164	236.08542
1040.322	120.10984
1040.481	177.1126
1040.64	154.18128
1040.799	39.74377
1040.958	355.0297
1041.116	178.33796
1041.275	42.85871
1041.434	185.40073
1041.593	12.27312
1041.751	107.53895
1041.91	272.02831
1042.069	-3.90364
1042.227	174.22919
1042.386	314.81384
1042.544	119.24307
1042.703	121.62663
1042.861	147.90432
1043.02	35.54166
1043.178	257.2253
1043.337	338.76358
1043.495	210.25047
1043.653	92.50408
1043.812	48.36329
1043.97	123.79332
1044.129	89.90105
1044.287	170.84081
1044.445	234.86257
1044.603	1.03023
1044.762	-28.36901
1044.92	323.06222
1045.078	212.41028
1045.236	135.5627
1045.394	157.21103
1045.552	344.99879
