Data from deutdg_800ms_5_SR4014911__0__16-52-49-162.txt Node

Date: Sun Jul 13 16:52:49 EDT 2025
User: cryst
Spectrometer: SR401491
Trigger mode: 0
Integration Time (sec): 8.000000E-1
Scans to average: 5
Electric dark correction enabled: true
Nonlinearity correction enabled: true
Boxcar width: 0
XAxis mode: Wavelengths
Number of Pixels in Spectrum: 3648
>>>>>Begin Spectral Data<<<<<
344.912	-1472.64566
345.129	-1403.47978
345.347	-1431.62585
345.565	-1440.94017
345.783	583.48071
346.001	390.46902
346.219	314.16822
346.437	458.86704
346.654	873.61094
346.872	299.31495
347.09	-143.23617
347.308	759.42696
347.526	509.58451
347.743	243.49335
347.961	1211.52627
348.179	593.93193
348.397	756.03169
348.614	1200.62436
348.832	1617.93334
349.05	1713.99868
349.268	1880.174
349.485	1883.06651
349.703	1553.50536
349.921	2148.12408
350.138	2031.20597
350.356	2081.66583
350.574	1375.33697
350.791	1652.60516
351.009	2037.3871
351.227	1753.15952
351.444	1601.31519
351.662	1804.49925
351.879	1649.28439
352.097	1734.10092
352.314	1686.62998
352.532	1866.32909
352.75	2011.62795
352.967	1989.36261
353.185	2030.38177
353.402	1696.79134
353.62	1598.82196
353.837	2149.15226
354.055	1873.56195
354.272	2221.08199
354.49	2523.13217
354.707	2484.27278
354.925	1665.05602
355.142	2023.58165
355.359	2299.28841
355.577	2285.74771
355.794	2216.76858
356.012	2503.29607
356.229	2062.51687
356.446	1800.77471
356.664	2129.40806
356.881	2496.751
357.099	1910.33109
357.316	1936.75636
357.533	2248.18806
357.751	1816.29186
357.968	2579.74761
358.185	2271.79371
358.402	2126.93958
358.62	2422.46259
358.837	2370.22847
359.054	1751.50253
359.272	1786.90877
359.489	1898.76599
359.706	2037.79916
359.923	2284.10622
360.141	2219.23342
360.358	2480.79485
360.575	2183.89459
360.792	1862.19559
361.009	2044.39158
361.226	2037.79916
361.444	2482.22696
361.661	2131.46505
361.878	2216.56317
362.095	1854.34103
362.312	2298.26269
362.529	2109.04002
362.746	2382.93225
362.963	1659.66104
363.181	1794.15264
363.398	2139.89798
363.615	2767.88852
363.832	1864.67573
364.049	1755.23067
364.266	2721.40554
364.483	2240.59133
364.7	2052.21911
364.917	1606.30124
365.134	2164.36733
365.351	2123.64811
365.568	2431.06201
365.785	1974.51413
366.002	1737.62316
366.219	1905.1684
366.436	2484.68193
366.652	2312.00586
366.869	2091.34087
367.086	2584.85516
367.303	1715.44963
367.52	1967.08841
367.737	2551.75196
367.954	2397.88685
368.171	1986.2695
368.387	2620.8024
368.604	2122.20804
368.821	2250.65167
369.038	1989.15641
369.255	2328.20677
369.471	1704.2555
369.688	2578.31743
369.905	2455.42121
370.122	2197.25176
370.339	2324.51578
370.555	1879.34754
370.772	1743.83828
370.989	2770.74186
371.205	1942.74156
371.422	2213.27655
371.639	1943.97979
371.855	2593.63932
372.072	1968.11982
372.289	1831.80437
372.505	2702.84557
372.722	1750.67402
372.939	2071.78328
373.155	2625.70297
373.372	1893.80875
373.589	2423.8959
373.805	1937.58194
374.022	1872.52875
374.238	1791.04825
374.455	2257.63138
374.671	2349.52843
374.888	2362.64604
375.104	1534.3677
375.321	1701.56024
375.537	1959.45538
375.754	2260.91568
375.97	2228.68109
376.187	2625.90715
376.403	1829.11587
376.62	2325.95119
376.836	1948.10704
377.053	2007.91767
377.269	1946.04346
377.486	1853.72089
377.702	1295.29006
377.918	1622.50232
378.135	2083.51862
378.351	2385.1859
378.568	2124.88243
378.784	2103.0723
379	2058.39798
379.217	1822.29058
379.433	1836.97419
379.649	2183.89459
379.865	2033.47246
380.082	2807.41891
380.298	1920.44853
380.514	2777.67101
380.731	1994.31122
380.947	1719.80222
381.163	2171.56231
381.379	2041.09546
381.596	2063.75247
381.812	2703.45751
382.028	2292.31325
382.244	2114.18412
382.46	1835.52669
382.676	2853.4461
382.893	2247.77745
383.109	2044.39158
383.325	2004.001
383.541	2496.95554
383.757	1436.26516
383.973	2256.39972
384.189	2406.69418
384.405	2248.18806
384.622	2154.70415
384.838	2370.63831
385.054	2214.30363
385.27	2737.31064
385.486	2091.34087
385.702	1824.35894
385.918	2300.10896
386.134	2443.95912
386.35	2453.98855
386.566	2756.06644
386.782	2768.49996
386.998	2837.97074
387.214	2540.10098
387.43	2419.59587
387.646	2990.9743
387.861	2736.08728
388.077	2508.6135
388.293	2681.42478
388.509	2613.24674
388.725	2386.82486
388.941	2384.16152
389.157	2188.82681
389.373	2430.85727
389.588	2568.91844
389.804	2381.0883
390.02	2664.2839
390.236	2135.16746
390.452	2220.8766
390.668	2283.69584
390.883	2923.86452
391.099	2572.80078
391.315	2695.09396
391.531	2126.73387
391.746	2479.97649
391.962	2507.99998
392.178	2547.86851
392.393	2444.77791
392.609	3082.81498
392.825	2521.70088
393.041	2330.87235
393.256	2661.63081
393.472	2828.60269
393.687	2712.43203
393.903	3103.52781
394.119	2739.96118
394.334	2941.15518
394.55	3165.03134
394.766	2806.80776
394.981	3228.72811
395.197	3138.64836
395.412	3448.33445
395.628	3410.27838
395.843	3603.47165
396.059	4345.93819
396.274	3342.43456
396.49	3916.63909
396.705	2876.85742
396.921	2348.29852
397.136	2754.84337
397.352	2907.79135
397.567	2572.80078
397.783	2777.46722
397.998	2776.04067
398.214	2777.46722
398.429	2251.26756
398.644	3279.81965
398.86	2610.7961
399.075	3102.71563
399.29	2582.40358
399.506	2420.61971
399.721	2696.31795
399.936	2512.90806
400.152	2483.24988
400.367	2663.67166
400.582	2649.5887
400.798	3143.51959
401.013	2305.03208
401.228	2863.8293
401.444	2838.7853
401.659	2759.73555
401.874	3234.0006
402.089	2807.62262
402.304	2758.92021
402.52	2970.23661
402.735	2298.26269
402.95	2470.76927
403.165	2843.87614
403.38	3252.2495
403.596	2735.0678
403.811	2884.18488
404.026	3417.36423
404.241	2659.99809
404.456	2626.11134
404.671	3420.60333
404.886	3101.90344
405.101	2694.88996
405.316	2934.64615
405.532	3265.4273
405.747	3031.01327
405.962	3196.07324
406.177	2973.28657
406.392	2805.178
406.607	3302.51917
406.822	3506.60954
407.037	3715.20868
407.252	4327.82655
407.467	4411.53003
407.682	4550.90141
407.896	4983.24719
408.111	5009.74799
408.326	5285.29651
408.541	6300.42677
408.756	6897.68987
408.971	7268.91832
409.186	7280.94622
409.401	6547.34696
409.616	3865.19699
409.83	3097.43626
410.045	2694.88996
410.26	2493.68279
410.475	2396.04331
410.69	2928.13664
410.905	2771.9647
411.119	2224.3682
411.334	2635.29899
411.549	2847.33774
411.764	3084.43967
411.978	3378.69047
412.193	2918.57494
412.408	2661.22263
412.623	2266.86804
412.837	3496.29204
413.052	3031.62286
413.267	2961.08613
413.481	2678.16014
413.696	2680.60863
413.911	2606.30303
414.125	2468.10918
414.34	2322.6702
414.554	2603.85216
414.769	3023.08814
414.984	2590.77947
415.198	2143.59986
415.413	2367.56447
415.627	2934.64615
415.842	2496.34191
416.056	2704.68137
416.271	2449.89508
416.485	2757.2895
416.7	2819.2336
416.914	2548.2773
417.129	2569.32712
417.343	3036.70268
417.558	2661.01854
417.772	3007.03262
417.987	2910.84344
418.201	2503.70512
418.415	2318.56874
418.63	2681.01671
418.844	2737.71842
419.059	3130.12314
419.273	2678.56823
419.487	3410.6833
419.702	2958.44248
419.916	3485.569
420.13	2679.18035
420.345	2655.30383
420.559	2792.75005
420.773	2616.30994
420.988	2867.29009
421.202	3428.49825
421.416	2720.38588
421.63	2907.79135
421.845	3084.84584
422.059	2798.04744
422.273	2458.28644
422.487	2944.8163
422.701	3566.27241
422.916	3741.66471
423.13	2784.59956
423.344	2598.95017
423.558	2540.10098
423.772	2391.12696
423.986	2842.24711
424.201	2678.36418
424.415	3226.29456
424.629	3020.44629
424.843	2829.82467
425.057	3081.39334
425.271	2260.50515
425.485	2256.605
425.699	2320.41443
425.913	3159.14651
426.127	2769.3152
426.341	2717.93863
426.555	2704.06944
426.769	3282.86004
426.983	3491.43644
427.197	2927.72978
427.411	2807.82634
427.625	3265.63002
427.839	2672.4467
428.053	2568.50976
428.267	2510.04505
428.481	3012.92674
428.695	2688.97373
428.908	2307.90373
429.122	3137.83647
429.336	3022.47849
429.55	2823.91828
429.764	3344.25777
429.978	4402.87945
430.191	4586.48584
430.405	6104.60432
430.619	6428.49739
430.833	8346.98425
431.047	10295.73548
431.26	13436.30691
431.474	15738.47601
431.688	17290.38058
431.901	18029.50392
432.115	21263.88445
432.329	23223.71201
432.543	25086.639
432.756	29001.7307
432.97	30030.12526
433.184	21783.40421
433.397	10901.86735
433.611	4719.13205
433.824	3768.11582
434.038	3147.17286
434.252	3088.50129
434.465	2787.04479
434.679	2829.21368
434.892	3037.71862
435.106	2241.61797
435.319	2510.04505
435.533	3203.17301
435.747	3179.03181
435.96	2511.47657
436.174	3210.06945
436.387	3061.69141
436.601	2916.13349
436.814	3303.53243
437.027	2473.83847
437.241	3108.40078
437.454	2435.15659
437.668	3258.5345
437.881	3183.90108
438.095	2966.37319
438.308	3039.54726
438.521	3556.7687
438.735	3004.59356
438.948	3031.62286
439.161	2844.2834
439.375	2866.4758
439.588	3223.04974
439.801	3191.61029
440.015	2985.48537
440.228	3380.7156
440.441	3895.25737
440.654	4194.55678
440.868	3978.14614
441.081	2658.16124
441.294	3452.17986
441.507	3270.08982
441.721	2797.23248
441.934	3291.57535
442.147	2850.39197
442.36	3124.23624
442.573	3285.90034
442.786	2789.89747
443	3587.09722
443.213	3098.04543
443.426	3243.73374
443.639	3805.86592
443.852	3387.19577
444.065	3719.85399
444.278	3405.01433
444.491	3603.6738
444.704	3282.45466
444.917	3482.93868
445.13	3294.21007
445.343	3084.84584
445.556	4356.80444
445.769	4356.20077
445.982	3548.67987
446.195	3823.22368
446.408	3620.04615
446.621	3809.90279
446.834	3339.59841
447.047	3379.70304
447.26	3193.63893
447.473	3502.76587
447.686	3532.50066
447.899	3523.80347
448.111	3856.52077
448.324	3579.2125
448.537	3414.12504
448.75	3334.33108
448.963	3384.76575
449.176	3824.43462
449.388	3614.99317
449.601	3379.0955
449.814	3437.80954
450.027	3486.78298
450.239	3295.62874
450.452	3475.45206
450.665	2923.66108
450.878	3299.47933
451.09	3473.22622
451.303	3455.82276
451.516	3176.19129
451.728	3599.83307
451.941	2743.01939
452.154	3811.11383
452.366	3736.61623
452.579	3013.33322
452.792	3566.67681
453.004	3603.06737
453.217	3186.94426
453.429	3310.62499
453.642	3123.01822
453.854	3715.61262
454.067	3991.25122
454.28	3880.73227
454.492	2761.9777
454.705	3143.72256
454.917	3021.46239
455.13	3969.07278
455.342	3507.82331
455.555	2997.07273
455.767	4256.57234
455.979	3543.82633
456.192	3850.66908
456.404	3040.35998
456.617	3529.46682
456.829	3231.36439
457.041	3769.12531
457.254	3756.20333
457.466	3303.73508
457.679	3426.67639
457.891	3876.89904
458.103	3784.06491
458.315	3560.20629
458.528	3164.42259
458.74	3530.88262
458.952	3400.9649
459.165	3430.92736
459.377	2940.13817
459.589	2549.50367
459.801	3422.0204
460.014	3366.53895
460.226	3255.08793
460.438	3164.21966
460.65	2777.05963
460.862	3449.34641
461.075	3104.13695
461.287	2768.70377
461.499	2439.04622
461.711	2524.35896
461.923	3025.93314
462.135	3383.34821
462.347	3142.70774
462.559	3402.58469
462.771	3404.20446
462.983	2990.77102
463.196	3555.75762
463.408	3774.9802
463.62	3613.37618
463.832	3767.91392
464.044	3678.24261
464.256	3908.77257
464.468	3199.72461
464.68	3486.37832
464.891	3609.13147
465.103	3134.58882
465.315	3942.25305
465.527	2969.0166
465.739	2459.92366
465.951	2969.0166
466.163	2992.39731
466.375	2700.39778
466.587	3477.8802
466.799	2903.72172
467.01	2898.63442
467.222	2998.90218
467.434	2846.9305
467.646	2875.22902
467.858	3171.52455
468.069	2981.41929
468.281	2576.47859
468.493	2319.79921
468.705	2424.51016
468.916	2770.53806
469.128	2313.64665
469.34	2444.9826
469.551	2473.83847
469.763	1999.8779
469.975	2494.91009
470.186	2673.67104
470.398	2331.07739
470.61	2358.75202
470.821	2220.46581
471.033	2556.04396
471.245	3196.07324
471.456	2259.88935
471.668	2707.74093
471.879	2487.54597
472.091	3106.16737
472.302	3204.5929
472.514	3319.94594
472.725	2815.36346
472.937	2517.61133
473.148	2406.28456
473.36	2742.81551
473.571	2981.82591
473.783	2706.51712
473.994	2804.97428
474.206	2667.95727
474.417	2545.6201
474.629	3011.50406
474.84	3250.6275
475.051	3320.75642
475.263	2515.56647
475.474	2776.24447
475.685	3130.9351
475.897	2769.3152
476.108	3347.29637
476.319	2545.6201
476.531	2699.9898
476.742	3212.90902
476.953	3364.31103
477.165	3736.81817
477.376	3010.48784
477.587	2975.52314
477.798	3072.05067
478.01	2617.73939
478.221	3075.3004
478.432	3110.63414
478.643	3019.83662
478.854	2779.50509
479.065	3785.88179
479.277	3632.1725
479.488	3503.17047
479.699	3607.51441
479.91	3293.19673
480.121	3669.15107
480.332	3467.56025
480.543	3526.43291
480.754	2889.27302
480.965	3320.5538
481.176	3536.7479
481.387	4247.71416
481.598	3615.19529
481.809	4807.93081
482.02	6566.18651
482.231	12789.809
482.442	24426.76254
482.653	44017.79373
482.864	62532.37839
483.075	62532.37839
483.286	62532.37839
483.497	62532.37839
483.708	62532.37839
483.919	62532.37839
484.13	62532.37839
484.341	62532.37839
484.551	62532.37839
484.762	62532.37839
484.973	62532.37839
485.184	62532.37839
485.395	62532.37839
485.605	62532.37839
485.816	62532.37839
486.027	62532.37839
486.238	62532.37839
486.449	62532.37839
486.659	62532.37839
486.87	62532.37839
487.081	62532.37839
487.291	62532.37839
487.502	13738.1875
487.713	4954.33507
487.923	4835.44926
488.134	4313.73866
488.345	5366.74648
488.555	4775.99033
488.766	4121.44142
488.976	4803.10981
489.187	4710.08998
489.398	4736.81352
489.608	4690.79928
489.819	3881.53926
490.029	3807.68252
490.24	5020.78945
490.45	4495.80604
490.661	4188.51526
490.871	3766.70253
491.082	3393.27059
491.292	3631.16201
491.503	4003.95209
491.713	4085.57816
491.924	4096.45878
492.134	3928.33731
492.344	3930.15248
492.555	4117.00927
492.765	4422.19192
492.975	4267.0406
493.186	4175.82744
493.396	4011.41089
493.607	3427.28368
493.817	4434.26139
494.027	3774.17264
494.237	3487.59229
494.448	3693.59584
494.658	3993.67051
494.868	3145.14328
495.078	3885.17064
495.289	4551.90669
495.499	3918.25269
495.709	3603.47165
495.919	3855.51187
496.129	3796.78256
496.34	3200.33316
496.55	3034.06121
496.76	3847.44047
496.97	4135.54302
497.18	3645.51021
497.39	3607.11014
497.6	4068.44992
497.81	4545.27178
498.021	4440.29589
498.231	4569.19684
498.441	3984.598
498.651	3547.4665
498.861	3104.13695
499.071	3721.46971
499.281	4071.67419
499.491	3601.85452
499.701	3680.26287
499.911	3861.36337
500.121	3763.87589
500.331	4162.53453
500.54	4702.05234
500.75	3990.44478
500.96	3815.15056
501.17	3633.38507
501.38	3967.05641
501.59	4102.50328
501.8	3435.58299
502.01	3026.94918
502.219	3876.89904
502.429	4177.23724
502.639	4359.62153
502.849	4253.35123
503.059	3559.59967
503.268	3587.29939
503.478	3495.6851
503.688	4024.71496
503.898	3664.7061
504.107	3701.27181
504.317	4442.91079
504.527	4181.86936
504.736	4127.888
504.946	3625.30103
505.156	3975.525
505.365	3552.72435
505.575	3525.62386
505.785	3621.25883
505.994	4189.11942
506.204	3465.1319
506.413	3493.86426
506.623	3013.73969
506.832	3468.77441
507.042	3774.77831
507.251	3998.10578
507.461	3759.43393
507.67	3582.24514
507.88	3438.01195
508.089	3516.31935
508.299	3608.52508
508.508	3553.53323
508.718	2977.55634
508.927	3275.15755
509.137	4117.61366
509.346	3762.26065
509.555	3388.20826
509.765	3361.27289
509.974	4526.17033
510.184	4035.8009
510.393	3382.9432
510.602	3581.43644
510.812	4155.88773
511.021	3608.32294
511.23	4411.7312
511.439	3262.99459
511.649	3360.26016
511.858	3708.34141
512.067	3791.93787
512.276	3821.00362
512.486	4046.48304
512.695	3576.58415
512.904	3051.12788
513.113	3429.71281
513.322	3591.74696
513.531	3603.26951
513.741	4045.67687
513.95	2989.55128
514.159	3615.59954
514.368	3091.75047
514.577	3301.91121
514.786	3205.20142
514.995	3231.56717
515.204	3520.97169
515.413	3023.90101
515.622	3141.48994
515.831	3298.06071
516.04	3312.44872
516.249	2967.59324
516.458	3163.81382
516.667	3474.03562
516.876	3602.05666
517.085	3297.0474
517.294	3835.53437
517.503	3324.80873
517.712	3324.40351
517.921	3549.691
518.13	3632.57669
518.339	3681.47501
518.547	4057.76912
518.756	3234.20338
518.965	3494.26889
519.174	3401.57232
519.383	3284.68423
519.591	3005.00008
519.8	2797.02874
520.009	3424.2472
520.218	3205.80993
520.426	3360.05761
520.635	3695.00987
520.844	3270.90067
521.053	3502.76587
521.261	3736.81817
521.47	3363.50087
521.679	3710.56321
521.887	3421.61553
522.096	3306.16686
522.304	2961.89954
522.513	2827.17703
522.722	2848.76306
522.93	3674.40403
523.139	3378.89299
523.347	2978.77624
523.556	2843.26526
523.764	3178.42313
523.973	3045.6425
524.182	2946.6468
524.39	3363.29833
524.598	3023.49458
524.807	2730.37804
525.015	3362.28561
525.224	3440.44085
525.432	3263.8055
525.641	2802.52958
525.849	3145.75216
526.057	3230.14765
526.266	3674.40403
526.474	2865.45793
526.683	3051.53419
526.891	3302.72182
527.099	3153.05839
527.308	3317.51446
527.516	2742.40776
527.724	3295.02074
527.932	2977.55634
528.141	3678.64666
528.349	3781.23862
528.557	3270.49525
528.765	2992.19402
528.974	2838.98894
529.182	3083.22115
529.39	3118.349
529.598	2928.74693
529.806	2817.80778
530.015	3271.10338
530.223	2901.07636
530.431	2898.22743
530.639	2675.30347
530.847	2801.10347
531.055	3216.76261
531.263	3247.38343
531.471	2683.26108
531.679	2586.28521
531.887	3304.54568
532.095	3563.44159
532.303	3631.36411
532.511	3245.15308
532.719	3171.72746
532.927	3181.46647
533.135	3492.65036
533.343	3749.33805
533.551	3378.08293
533.759	3395.09297
533.967	3847.84405
534.175	3452.9894
534.383	4002.33934
534.591	3942.65639
534.798	3710.36123
535.006	3061.28515
535.214	3197.08753
535.422	3048.08049
535.63	3450.56076
535.837	2791.32377
536.045	2915.31965
536.253	3242.71991
536.461	3270.69796
536.668	3389.22074
536.876	3795.77326
537.084	4011.41089
537.292	3747.52072
537.499	4006.77438
537.707	3531.69164
537.915	3876.09203
538.122	4193.54987
538.33	3891.82795
538.538	3532.70291
538.745	3838.35963
538.953	3964.03181
539.16	3616.61014
539.368	3399.95252
539.575	3254.88519
539.783	3343.44746
539.99	4226.17104
540.198	3559.59967
540.406	3508.0256
540.613	3367.9567
540.82	3329.0635
541.028	3688.1416
541.235	3777.20096
541.443	4182.27215
541.65	4459.00185
541.858	3842.59742
542.065	3511.26225
542.272	3211.48925
542.48	4019.87724
542.687	3266.64363
542.895	3996.29136
543.102	3518.34213
543.309	3744.28985
543.516	3793.75465
543.724	3804.45299
543.931	3368.15923
544.138	3892.43315
544.346	3491.63876
544.553	3666.32247
544.76	3606.30159
544.967	3346.28351
545.174	3630.35362
545.382	3530.68037
545.589	3650.76409
545.796	3921.07645
546.003	3121.19116
546.21	3817.37071
546.417	4514.70875
546.624	3920.26967
546.832	3800.01226
547.039	3914.82378
547.246	4331.449
547.453	3800.21411
547.66	3325.82179
547.867	3898.28326
548.074	3714.40078
548.281	3402.17974
548.488	3412.50541
548.695	3397.32029
548.902	3588.31022
549.109	3291.9807
549.316	3002.96749
549.523	3044.62666
549.73	3401.97727
549.936	3488.60392
550.143	3175.3797
550.35	3049.50262
550.557	3063.72273
550.764	2970.64328
550.971	3568.69878
551.178	3481.72466
551.384	3814.54505
551.591	3765.69302
551.798	3881.74101
552.005	3424.65207
552.211	3742.47245
552.418	3495.6851
552.625	2911.25038
552.832	3772.75941
553.038	3754.99183
553.245	3824.43462
553.452	3733.99095
553.658	3338.99066
553.865	3252.65499
554.072	3409.06362
554.278	3584.46904
554.485	4622.06544
554.691	4232.41274
554.898	3435.98782
555.105	4145.01064
555.311	3545.4442
555.518	4058.17218
555.724	3739.4434
555.931	3036.29631
556.137	3174.5681
556.344	3716.21854
556.55	3639.44778
556.757	3707.1295
556.963	3713.3909
557.17	3837.35061
557.376	3839.16684
557.582	3879.11829
557.789	3266.03546
557.995	3230.55323
558.202	3375.04515
558.408	3449.5488
558.614	3096.01484
558.821	3619.23768
559.027	3916.63909
559.233	3762.05874
559.439	4500.02911
559.646	3753.57841
559.852	4052.52925
560.058	4110.5623
560.264	3986.61415
560.471	3658.24042
560.677	4149.84498
560.883	4158.90903
561.089	4227.98316
561.295	3684.90935
561.502	3881.53926
561.708	3523.19666
561.914	3892.43315
562.12	3962.62031
562.326	4169.38251
562.532	4001.73455
562.738	4176.43164
562.944	3542.41067
563.15	3839.77224
563.356	3326.42962
563.562	3886.38108
563.768	4009.79821
563.974	3270.29253
564.18	3877.30254
564.386	3819.18717
564.592	3382.74069
564.798	3428.90311
565.004	4065.42712
565.21	3309.00387
565.416	4038.21956
565.622	3901.51081
565.828	3913.61355
566.034	4442.10621
566.239	4010.60455
566.445	4715.31432
566.651	4629.10039
566.857	5135.80329
567.063	4675.12463
567.268	4932.64948
567.474	5196.8103
567.68	5171.5255
567.886	5790.88345
568.091	6159.92515
568.297	5574.73429
568.503	6129.45878
568.708	6428.69781
568.914	6693.05345
569.12	6787.85442
569.325	6356.94655
569.531	6343.71858
569.737	5274.46231
569.942	5689.03136
570.148	6649.76218
570.353	7737.26769
570.559	7433.7076
570.765	6914.32584
570.97	7310.6154
571.176	8192.52452
571.381	6720.71191
571.587	5615.84302
571.792	6000.97373
571.998	5948.25389
572.203	6132.26491
572.408	8070.57352
572.614	8774.94424
572.819	8100.8597
573.025	7354.11769
573.23	6972.05135
573.435	7257.49187
573.641	7307.4079
573.846	6708.68648
574.051	7409.24885
574.257	7908.52343
574.462	7826.50264
574.667	7265.91135
574.873	7121.98325
575.078	8259.92304
575.283	7598.11195
575.488	8426.42725
575.694	9032.018
575.899	7435.51195
576.104	7919.55348
576.309	8333.94479
576.514	8107.47862
576.719	10270.43747
576.925	11309.17663
577.13	10359.78366
577.335	9458.74818
577.54	8804.04111
577.745	7448.14244
577.95	8026.44912
578.155	7348.90538
578.36	6975.65923
578.565	7319.63652
578.77	9300.97205
578.975	9744.81797
579.18	8494.84004
579.385	9109.28817
579.59	10229.07727
579.795	8478.78983
580	7170.29226
580.205	7623.37559
580.41	10445.31497
580.615	14698.94036
580.82	15336.51555
581.024	13037.50444
581.229	12134.71479
581.434	11557.25362
581.639	9593.24753
581.844	8012.40983
582.049	7311.81821
582.253	7981.32333
582.458	7324.04687
582.663	6024.02556
582.868	6294.41399
583.072	6284.79351
583.277	7819.48396
583.482	9028.00405
583.686	9333.08841
583.891	8707.92318
584.096	9187.36446
584.3	9929.12047
584.505	8211.17914
584.71	8662.17396
584.914	9251.59411
585.119	8843.17222
585.323	8126.93442
585.528	6528.30701
585.733	7025.76922
585.937	7529.14028
586.142	6457.15764
586.346	8246.2826
586.551	7996.76622
586.755	8285.39892
586.959	10303.36504
587.164	9610.31137
587.368	8308.46803
587.573	9404.54903
587.777	13298.12686
587.982	37065.97653
588.186	62532.37839
588.39	36615.49681
588.595	25918.49577
588.799	44863.45001
589.003	22449.395
589.208	10001.79958
589.412	8144.58527
589.616	7407.84549
589.82	7676.5108
590.025	6025.62915
590.229	6257.53536
590.433	5798.90285
590.637	6216.04643
590.842	7407.84549
591.046	8094.24081
591.25	6935.5719
591.454	5663.16553
591.658	6451.34542
591.862	9144.81348
592.067	12707.02431
592.271	11290.50916
592.475	9120.92916
592.679	9567.95309
592.883	8577.50143
593.087	9103.46771
593.291	7736.26508
593.495	7138.62067
593.699	6474.39384
593.903	8625.05389
594.107	10463.58569
594.311	10374.0389
594.515	9346.13582
594.719	8223.81629
594.923	7669.49283
595.127	8743.43997
595.33	7720.22342
595.534	6376.98888
595.738	8097.04882
595.942	7716.8146
596.146	6472.79047
596.35	7874.63163
596.553	7116.37065
596.757	7966.48228
596.961	9838.37352
597.165	7987.13947
597.369	6205.22313
597.572	6572.59997
597.776	6465.57532
597.98	8848.79112
598.183	9941.96974
598.387	9093.03106
598.591	7316.22854
598.794	7311.2168
598.998	7549.99186
599.202	8658.56223
599.405	9260.0244
599.609	8900.16486
599.812	9555.10522
600.016	9209.8446
600.22	10071.46797
600.423	10036.13175
600.627	9107.08041
600.83	7518.71459
601.034	9283.30826
601.237	10472.2191
601.441	6795.47064
601.644	7000.11278
601.847	8731.80161
602.051	8492.83375
602.254	7790.808
602.458	8867.65473
602.661	10038.54103
602.864	8477.98732
603.068	7864.40408
603.271	6848.18334
603.475	6667.80018
603.678	7436.51437
603.881	7080.29002
604.084	5891.32224
604.288	6635.53223
604.491	8592.34887
604.694	8337.3551
604.897	6473.19132
605.101	6893.68122
605.304	7792.8133
605.507	6445.53321
605.71	5963.28826
605.913	7982.12556
606.116	8225.22042
606.32	7646.83505
606.523	7256.48956
606.726	6957.21899
606.929	7459.7706
607.132	7639.41621
607.335	8083.61053
607.538	6577.81091
607.741	6344.92112
607.944	5593.38389
608.147	5788.87859
608.35	6353.33893
608.553	6150.70511
608.756	6500.0477
608.959	7045.21216
609.162	8377.27639
609.365	7857.38522
609.568	7446.1376
609.771	5745.77314
609.973	7210.38356
610.176	7244.26134
610.379	6205.0227
610.582	6070.12827
610.785	6971.45003
610.988	6935.77233
611.19	5721.11195
611.393	5804.71688
611.596	5353.30607
611.799	5575.3359
612.001	6630.32126
612.204	5660.35834
612.407	5701.46272
612.609	6344.92112
612.812	6874.84061
613.015	6430.5016
613.217	6444.93194
613.42	5678.80542
613.623	5908.9633
613.825	6887.06695
614.028	7037.39488
614.23	6131.06228
614.433	5611.43146
614.636	6344.7207
614.838	7174.1009
615.041	7623.97711
615.243	4936.66543
615.446	4459.80637
615.648	4499.22472
615.85	5179.75325
616.053	4184.28608
616.255	5709.08186
616.458	5128.37753
616.66	4916.58523
616.863	4280.12517
617.065	4941.48451
617.267	5448.58586
617.47	5094.05677
617.672	4620.65842
617.874	4359.21909
618.077	4731.79048
618.279	5180.95729
618.481	5595.79026
618.683	4306.89563
618.886	4199.99399
619.088	6443.52899
619.29	6056.69847
619.492	4551.30352
619.694	4498.62143
619.897	5200.02097
620.099	4192.94573
620.301	3125.65725
620.503	3172.33618
620.705	4108.34611
620.907	4382.55933
621.109	4114.18875
621.311	4742.84105
621.513	5305.15861
621.715	5188.58286
621.917	5334.44882
622.119	5060.33539
622.321	4932.44868
622.523	5126.77194
622.725	4409.11595
622.927	3996.49297
623.129	4171.39657
623.331	4176.83444
623.533	3955.36099
623.735	4639.95396
623.937	4994.89171
624.139	3867.41642
624.341	3711.57311
624.542	3138.64836
624.744	3392.46063
624.946	4128.89526
625.148	4014.23305
625.35	4101.89884
625.551	3564.65481
625.753	3030.60687
625.955	3554.54432
626.156	4024.51339
626.358	4095.45134
626.56	3939.63134
626.762	4357.20688
626.963	4170.79236
627.165	3906.75545
627.366	4245.29822
627.568	3914.01696
627.77	3539.57932
627.971	4179.45262
628.173	3985.00123
628.374	3642.68111
628.576	3766.70253
628.777	4778.40105
628.979	3311.43554
629.18	3107.99471
629.382	2938.10413
629.583	4047.89384
629.785	3778.41227
629.986	3094.39034
630.188	3046.04884
630.389	3366.13388
630.591	3639.24569
630.792	2851.00281
630.993	2740.9806
631.195	2914.09889
631.396	2965.55981
631.597	3013.12998
631.799	2954.37518
632	3726.92265
632.201	3186.94426
632.402	3730.15391
632.604	3783.45928
632.805	3297.65538
633.006	3521.17396
633.207	3714.1988
633.409	3728.53829
633.61	3284.07617
633.811	3314.27241
634.012	3554.34211
634.213	3503.17047
634.414	3607.11014
634.615	3443.07211
634.816	4096.86175
635.017	3670.16127
635.219	3867.61818
635.42	3807.48068
635.621	3624.89682
635.822	4501.23569
636.023	3935.79952
636.224	3701.4738
636.425	3353.57589
636.626	3013.33322
636.826	3078.34692
637.027	3614.3868
637.228	3153.87016
637.429	2800.89974
637.63	3040.76634
637.831	2682.24092
638.032	2851.20642
638.233	2433.72351
638.433	2676.11967
638.634	2915.52311
638.835	2715.69525
639.036	2929.35721
639.237	2302.98083
639.437	2114.59563
639.638	2560.3357
639.839	2753.82413
640.039	2276.719
640.24	2937.2905
640.441	2410.38062
640.641	2047.8935
640.842	2642.64832
641.043	2428.60514
641.243	2195.197
641.444	2295.59577
641.645	2891.51171
641.845	2285.9529
642.046	2474.24769
642.246	2298.87812
642.447	1857.85506
642.647	2617.53518
642.848	3012.11378
643.048	2940.34157
643.249	2670.20201
643.449	2427.99091
643.65	2228.06498
643.85	2073.84228
644.05	2799.26986
644.251	2134.34472
644.451	2548.68609
644.651	2454.60255
644.852	2488.15967
645.052	2322.6702
645.252	2319.18398
645.453	1991.42458
645.653	2167.03985
645.853	2012.86466
646.054	2199.51192
646.254	2170.74007
646.454	1814.63692
646.654	1899.38561
646.854	2166.21755
647.055	2364.49049
647.255	1969.15121
647.455	3180.24915
647.655	2697.54192
647.855	2876.45033
648.055	2517.81582
648.255	2130.43657
648.455	2733.43661
648.655	2577.70449
648.856	2850.59559
649.056	2494.50099
649.256	2762.99683
649.456	2571.37047
649.656	2638.15715
649.856	2771.9647
650.055	2703.45751
650.255	3286.10303
650.455	3391.04319
650.655	3531.69164
650.855	4404.69006
651.055	5308.16795
651.255	5915.7791
651.455	5748.17907
651.655	4617.24136
651.854	4408.7136
652.054	3764.88541
652.254	4399.66054
652.454	5476.26434
652.654	5659.75679
652.853	8196.13507
653.053	10798.27358
653.253	18871.22537
653.452	44643.53226
653.652	62532.37839
653.852	62532.37839
654.051	62532.37839
654.251	62532.37839
654.451	62532.37839
654.65	62532.37839
654.85	62532.37839
655.049	62532.37839
655.249	62532.37839
655.449	62532.37839
655.648	62532.37839
655.848	62532.37839
656.047	62532.37839
656.247	62532.37839
656.446	62532.37839
656.645	62532.37839
656.845	62532.37839
657.044	62532.37839
657.244	62532.37839
657.443	62532.37839
657.643	62532.37839
657.842	62532.37839
658.041	62532.37839
658.241	62532.37839
658.44	62532.37839
658.639	62532.37839
658.839	62532.37839
659.038	62532.37839
659.237	62532.37839
659.436	62532.37839
659.636	62532.37839
659.835	62532.37839
660.034	62532.37839
660.233	62532.37839
660.432	62532.37839
660.631	62532.37839
660.831	62532.37839
661.03	62532.37839
661.229	62532.37839
661.428	62532.37839
661.627	62532.37839
661.826	62532.37839
662.025	62532.37839
662.224	62532.37839
662.423	62532.37839
662.622	62532.37839
662.821	62532.37839
663.02	62532.37839
663.219	62532.37839
663.418	62532.37839
663.617	62532.37839
663.816	62532.37839
664.015	62532.37839
664.214	62532.37839
664.412	62532.37839
664.611	62532.37839
664.81	62532.37839
665.009	62532.37839
665.208	36088.6912
665.406	4220.93591
665.605	4137.35601
665.804	3368.15923
666.003	3352.36053
666.201	2561.97059
666.4	2590.37092
666.599	2712.43203
666.798	2440.27448
666.996	2469.33692
667.195	2057.16226
667.394	2001.73333
667.592	2758.10486
667.791	2121.38512
667.989	2606.71151
668.188	2190.47079
668.386	2764.42361
668.585	2188.82681
668.783	2479.5673
668.982	2369.40879
669.18	2457.46781
669.379	2087.84157
669.577	1683.10411
669.776	1605.26253
669.974	2412.22377
670.173	1946.66254
670.371	1917.7645
670.57	1757.71594
670.768	1969.97631
670.966	2462.58406
671.165	2642.24004
671.363	2103.27809
671.561	2157.99391
671.76	2488.77337
671.958	2897.20993
672.156	2126.52816
672.354	1745.90982
672.553	1827.46133
672.751	1391.82936
672.949	1673.56227
673.147	2134.55041
673.345	1442.7286
673.543	2224.16282
673.742	1249.03165
673.94	1482.32283
674.138	1563.07123
674.336	1599.23751
674.534	1423.544
674.732	2094.01667
674.93	1803.87851
675.128	1325.82183
675.326	1459.19572
675.524	1387.86341
675.722	1970.59512
675.92	1491.27879
676.118	1327.49416
676.316	1619.80252
676.514	1562.44743
676.712	1205.44672
676.91	1601.73071
677.108	1660.28357
677.305	2158.40512
677.503	1698.2428
677.701	1652.60516
677.899	1359.25605
678.097	1628.73204
678.295	1344.21389
678.492	1435.84813
678.69	2042.53754
678.888	1497.31785
679.085	2398.91102
679.283	1538.32069
679.481	1118.1347
679.679	1417.91216
679.876	1480.86471
680.074	1545.80964
680.271	1290.26901
680.469	1186.78307
680.667	1785.87385
680.864	1663.60358
681.062	2020.28433
681.259	1775.93754
681.457	1051.4703
681.654	1728.09182
681.852	1153.83832
682.049	1285.03811
682.247	1144.39051
682.444	1169.57965
682.642	1586.35386
682.839	1010.19363
683.037	1507.51996
683.234	1913.84144
683.431	1565.15051
683.629	1044.10276
683.826	1350.27317
684.023	1661.9436
684.221	2046.86355
684.418	2224.57358
684.615	2499.41001
684.813	2598.95017
685.01	2414.88601
685.207	1632.88474
685.404	1159.92571
685.601	1941.29692
685.799	2026.26058
685.996	1564.73466
686.193	1512.30792
686.39	1100.90131
686.587	1603.80828
686.784	1656.34075
686.981	1938.40751
687.179	1649.07683
687.376	1011.03646
687.573	1398.29934
687.77	1649.49194
687.967	1217.8145
688.164	1352.98913
688.361	1049.15494
688.558	1421.24963
688.755	1080.50557
688.952	1908.47258
689.148	1509.60174
689.345	1277.08589
689.542	1420.2067
689.739	1340.24355
689.936	1098.16848
690.133	1645.34068
690.33	1167.27132
690.526	1574.71399
690.723	2406.07975
690.92	1993.89886
691.117	1245.26172
691.314	1066.41148
691.51	1063.88662
691.707	1193.28488
691.904	1287.33979
692.1	1839.66229
692.297	1143.13063
692.494	1116.45373
692.69	2468.10918
692.887	1949.9642
693.084	1309.30396
693.28	1243.79554
693.477	1244.21445
693.673	1224.73043
693.87	1253.63888
694.066	1023.25542
694.263	1091.65097
694.459	1243.79554
694.656	1355.0782
694.852	1522.50668
695.049	1253.01065
695.245	1494.40254
695.442	1167.69102
695.638	741.81033
695.834	949.67045
696.031	1422.08396
696.227	1500.85762
696.423	2125.91102
696.62	2011.83407
696.816	1898.97253
697.012	1184.26596
697.209	1559.74419
697.405	1716.486
697.601	1787.11575
697.797	1208.38179
697.994	1235.83537
698.19	882.91573
698.386	1534.3677
698.582	1577.62423
698.778	1017.98911
698.974	808.19689
699.17	983.21292
699.367	1253.42947
699.563	1978.02038
699.759	803.95876
699.955	1108.46813
700.151	1137.46068
700.347	1209.01071
700.543	1404.14238
700.739	1743.63112
700.935	969.71521
701.131	989.32745
701.327	1023.88732
701.523	1686.21518
701.718	1050.41788
701.914	1431.26055
702.11	1680.20027
702.306	1704.87747
702.502	1210.26851
702.698	840.38987
702.894	1101.95234
703.089	1055.46922
703.285	1115.19296
703.481	1067.67385
703.677	1314.32273
703.872	1038.62882
704.068	1005.55771
704.264	854.57083
704.459	376.29834
704.655	680.39867
704.851	756.2439
705.046	569.82501
705.242	464.43504
705.438	500.38876
705.633	909.3366
705.829	1010.19363
706.024	1312.23165
706.22	1747.35984
706.415	1638.28271
706.611	1411.6537
706.806	1762.68612
707.002	1345.25866
707.197	1310.14046
707.393	1400.8036
707.588	947.98197
707.784	1455.02741
707.979	972.45733
708.174	957.26764
708.37	840.81326
708.565	1144.81046
708.76	997.75963
708.956	1213.83207
709.151	990.38158
709.346	880.16684
709.542	580.92071
709.737	822.81448
709.932	1395.79495
710.127	1369.28122
710.322	899.61598
710.518	953.89131
710.713	744.35787
710.908	551.89302
711.103	931.09287
711.298	1306.79435
711.493	756.88054
711.688	728.64495
711.883	762.18536
712.078	1670.65787
712.273	1603.39277
712.468	664.4429
712.663	1172.937
712.858	1408.10685
713.053	1260.54876
713.248	1298.84627
713.443	1031.25879
713.638	837.84939
713.833	780.21563
714.028	1162.02459
714.223	1547.47369
714.418	1907.64656
714.613	1021.35963
714.807	1907.23354
715.002	993.96539
715.197	1138.09072
715.392	330.51962
715.587	691.66945
715.781	1022.20221
715.976	763.88273
716.171	1475.03178
716.365	977.94096
716.56	1156.98708
716.755	633.57317
716.949	965.70713
717.144	1224.73043
717.339	860.91867
717.533	1314.95003
717.728	1643.68007
717.922	703.7866
718.117	599.26288
718.312	1252.59183
718.506	895.17743
718.701	1747.56698
718.895	1872.94203
719.089	1403.93371
719.284	1197.47903
719.478	891.58392
719.673	439.58536
719.867	1459.61253
720.062	1148.58981
720.256	980.04984
720.45	820.06091
720.645	654.01431
720.839	1118.97516
721.033	1272.27196
721.228	623.13474
721.422	1128.63913
721.616	778.94322
721.81	1149.00972
722.005	1025.1511
722.199	1412.90547
722.393	733.52948
722.587	758.79037
722.781	1239.39669
722.975	1546.84968
723.169	1159.08612
723.364	1235.62587
723.558	664.86849
723.752	1059.04684
723.946	1579.91072
724.14	1005.76844
724.334	1118.1347
724.528	1106.36638
724.722	929.40353
724.916	1580.95
725.11	1180.69978
725.304	1336.69083
725.498	1463.57203
725.692	1161.60482
725.885	1412.27959
726.079	1866.74242
726.273	985.95404
726.467	893.48641
726.661	863.03436
726.855	1466.90608
727.048	1670.03547
727.242	955.15747
727.436	1235.62587
727.63	1051.04933
727.823	1480.23979
728.017	791.66524
728.211	991.43567
728.405	1470.44823
728.598	970.13709
728.792	1108.46813
728.986	1491.6953
729.179	1284.41036
729.373	951.78094
729.566	1161.81471
729.76	1180.69978
729.953	1166.22203
730.147	1666.92337
730.34	1592.79612
730.534	2535.39918
730.727	1574.29823
730.921	1629.77025
731.114	1661.11359
731.308	1347.34811
731.501	1345.25866
731.695	1053.78551
731.888	1111.41038
732.081	1060.94074
732.275	1268.50415
732.468	1347.97493
732.661	1332.92879
732.855	811.16327
733.048	882.91573
733.241	741.81033
733.434	1816.91245
733.628	1624.99431
733.821	1903.10319
734.014	1427.29817
734.207	1630.18553
734.4	955.15747
734.594	1266.20143
734.787	1473.36509
734.98	1497.10962
735.173	1694.5104
735.366	1110.3596
735.559	1457.94527
735.752	776.39825
735.945	523.90739
736.138	830.22686
736.331	1230.80709
736.524	1719.59497
736.717	1121.70653
736.91	1309.30396
737.103	1271.22538
737.296	956.42359
737.489	1156.56726
737.682	427.79612
737.875	660.82519
738.067	1134.94044
738.26	1192.65571
738.453	1365.3132
738.646	1415.61749
738.839	1412.90547
739.031	1328.12127
739.224	1143.34062
739.417	1429.38368
739.61	1615.64869
739.802	888.62428
739.995	642.09186
740.188	1645.75582
740.38	1068.51541
740.573	930.88171
740.765	906.37843
740.958	254.49381
741.151	1263.89859
741.343	512.57789
741.536	825.35605
741.728	750.7259
741.921	1004.50401
742.113	668.69852
742.306	827.2621
742.498	880.3783
742.691	953.46924
742.883	598.40999
743.076	771.9441
743.268	514.92964
743.46	1255.73291
743.653	548.90337
743.845	1177.76269
744.037	990.5924
744.23	809.46823
744.422	843.35353
744.614	757.51716
744.807	775.97407
744.999	955.57951
745.191	1048.73395
745.383	1063.67621
745.575	682.95087
745.768	1039.68156
745.96	886.93295
746.152	1149.42962
746.344	712.92471
746.536	1384.10586
746.728	1236.88285
746.92	1291.94276
747.112	706.33702
747.304	943.76042
747.496	829.37981
747.688	763.67057
747.88	235.94156
748.072	1475.8651
748.264	781.27594
748.456	873.18793
748.648	797.60059
748.84	869.80373
749.032	690.81895
749.224	1309.09483
749.416	1203.76944
749.608	1406.22899
749.799	1277.71375
749.991	1419.37233
750.183	1480.03148
750.375	736.50232
750.567	928.77001
750.758	392.83014
750.95	980.68247
751.142	852.66625
751.333	734.37889
751.525	1008.29718
751.717	1101.11152
751.908	1523.13102
752.1	723.12246
752.292	1017.35711
752.483	913.98467
752.675	951.1478
752.866	1214.67051
753.058	2062.51687
753.249	1521.67422
753.441	1316.41371
753.632	591.58604
753.824	641.66598
754.015	678.48438
754.207	1540.40107
754.398	1347.34811
754.589	850.76158
754.781	742.02263
754.972	922.01175
755.164	934.47132
755.355	1047.47096
755.546	1118.97516
755.738	930.24821
755.929	1070.19846
756.12	1819.80843
756.311	1877.48795
756.503	1302.19301
756.694	1375.33697
756.885	1391.82936
757.076	2325.95119
757.267	2120.76793
757.458	1557.45672
757.65	1561.40774
757.841	1345.25866
758.032	1855.5813
758.223	1555.58506
758.414	1657.7934
758.605	1539.77697
758.796	1015.25034
758.987	1773.6602
759.178	1212.78399
759.369	786.78902
759.56	1072.72291
759.751	1029.36341
759.942	1324.98563
760.133	889.68132
760.324	1312.64987
760.514	1160.55538
760.705	1754.81645
760.896	987.00826
761.087	1281.69
761.278	764.94355
761.468	646.35037
761.659	1290.68746
761.85	1216.13773
762.041	519.84635
762.231	1491.90355
762.422	880.80121
762.613	1534.3677
762.803	995.23018
762.994	2036.97505
763.185	829.37981
763.375	1123.59736
763.566	903.20869
763.757	995.86256
763.947	1084.92206
764.138	1370.53421
764.328	1697.62075
764.519	1801.60241
764.709	1331.67471
764.9	1150.26941
765.09	973.93378
765.281	1050.20739
765.471	773.42888
765.661	733.10476
765.852	792.7252
766.042	1027.67854
766.232	316.96582
766.423	602.88742
766.613	768.76221
766.803	764.94355
766.994	1050.41788
767.184	1022.6235
767.374	1590.09464
767.564	1795.39434
767.755	1231.22613
767.945	767.70151
768.135	1009.14006
768.325	1811.53376
768.515	1476.90673
768.706	1087.23525
768.896	1289.22289
769.086	1547.88969
769.276	1301.14718
769.466	969.50427
769.656	967.3948
769.846	1120.65602
770.036	1386.81968
770.226	1235.62587
770.416	1093.12276
770.606	1405.39436
770.796	1739.2806
770.986	1189.92924
771.176	763.67057
771.366	1100.27067
771.555	1105.10528
771.745	587.53363
771.935	999.44584
772.125	846.31693
772.315	841.02496
772.504	1176.92348
772.694	592.43911
772.884	1239.18721
773.074	438.94243
773.263	986.79742
773.453	880.80121
773.643	1564.31881
773.832	1247.77505
774.022	1032.52232
774.212	800.14399
774.401	573.45287
774.591	216.94535
774.781	400.12701
774.97	939.74951
775.16	558.08497
775.349	459.72372
775.539	732.04296
775.728	429.93996
775.918	1176.29406
776.107	2222.51973
776.297	3851.67801
776.486	6785.04844
776.675	8181.8935
776.865	6027.83409
777.054	2903.51823
777.243	1570.55619
777.433	1555.16913
777.622	1373.45769
777.811	1157.19699
778.001	1180.49
778.19	990.5924
778.379	646.77619
778.568	1026.83608
778.758	873.18793
778.947	1077.56097
779.136	1233.53082
779.325	1084.92206
779.514	366.63266
779.703	1438.76725
779.892	551.67948
780.082	692.09468
780.271	409.99642
780.46	1197.47903
780.649	1211.52627
780.838	1030.8376
781.027	637.19388
781.216	509.37069
781.405	486.48304
781.594	1142.50068
781.783	1251.33533
781.971	1631.43134
782.16	932.99329
782.349	1588.01647
782.538	541.0008
782.727	1349.85532
782.916	653.80144
783.105	1316.20461
783.293	795.69291
783.482	1583.85985
783.671	1145.23041
783.86	787.84913
784.048	495.04114
784.237	194.04661
784.426	679.54788
784.614	806.7136
784.803	770.45925
784.992	186.91395
785.18	603.10062
785.369	1027.25731
785.557	681.67479
785.746	1082.60872
785.935	954.73542
786.123	589.87982
786.312	299.09963
786.5	999.23507
786.689	844.41191
786.877	828.1092
787.065	1057.57374
787.254	116.35362
787.442	437.87085
787.631	904.68794
787.819	952.6251
788.007	1264.94535
788.196	1232.27373
788.384	1330.00254
788.572	1361.13595
788.761	430.79745
788.949	586.04051
789.137	791.02925
789.325	725.03419
789.513	625.47835
789.702	792.30122
789.89	1071.46071
790.078	570.03842
790.266	509.79833
790.454	698.4726
790.642	580.49402
790.83	1223.05395
791.018	829.37981
791.207	732.46768
791.395	1033.15407
791.583	468.71744
791.771	1284.61961
791.959	695.2838
792.146	496.32465
792.334	428.65367
792.522	788.27316
792.71	770.45925
792.898	708.88725
793.086	1091.86123
793.274	837.63768
793.462	1654.47299
793.65	1575.96126
793.837	617.80773
794.025	1241.91038
794.213	364.26946
794.401	1327.91223
794.588	733.10476
794.776	374.58022
794.964	193.8305
795.151	1009.98292
795.339	774.4894
795.527	604.16657
795.714	124.37107
795.902	627.60876
796.089	469.35975
796.277	222.34329
796.465	1104.47471
796.652	799.72011
796.84	418.57589
797.027	1018.19978
797.215	597.55707
797.402	1060.09902
797.59	1049.36543
797.777	524.54856
797.964	297.80768
798.152	539.5055
798.339	1042.62909
798.526	290.27012
798.714	382.52567
798.901	631.23014
799.088	941.22727
799.276	623.34781
799.463	709.94979
799.65	498.46372
799.837	604.37976
800.025	338.90694
800.212	924.54624
800.399	699.11033
800.586	529.03639
800.773	605.87203
800.96	418.57589
801.148	1142.0807
801.335	823.02628
801.522	1090.59965
801.709	362.76551
801.896	828.95628
802.083	496.75248
802.27	401.19992
802.457	643.5824
802.644	546.98131
802.831	584.97395
803.018	464.43504
803.204	491.61818
803.391	699.11033
803.578	393.47406
803.765	551.67948
803.952	1111.41038
804.139	548.90337
804.326	673.59181
804.512	725.45901
804.699	1087.44554
804.886	455.65427
805.073	361.04661
805.259	729.49448
805.446	1901.0379
805.633	1006.18991
805.819	1171.4682
806.006	1204.39843
806.192	826.62676
806.379	402.91651
806.566	378.87532
806.752	890.94973
806.939	613.97173
807.125	208.7385
807.312	669.76234
807.498	974.35561
807.685	1061.78245
807.871	569.82501
808.058	763.88273
808.244	942.28277
808.43	918.42091
808.617	899.40463
808.803	806.5017
808.99	588.81339
809.176	692.51992
809.362	488.83675
809.549	621.21712
809.735	671.25163
809.921	144.07973
810.107	798.66036
810.293	565.12951
810.48	1043.89224
810.666	805.23025
810.852	778.51907
811.038	468.50333
811.224	540.35996
811.41	740.53648
811.597	957.90067
811.783	137.36738
811.969	557.23098
812.155	100.96221
812.341	566.41017
812.527	532.02792
812.713	761.33665
812.899	422.43586
813.085	594.57169
813.271	882.91573
813.456	1048.31296
813.642	245.86635
813.828	490.97634
814.014	1072.30218
814.2	685.07757
814.386	610.77472
814.572	193.18214
814.757	788.27316
814.943	1339.19866
815.129	778.94322
815.315	765.58002
815.5	603.31381
815.686	1044.10276
815.872	68.19939
816.057	361.90607
816.243	1085.55294
816.429	480.70499
816.614	542.49603
816.8	480.49097
816.985	620.79096
817.171	766.85293
817.356	972.24641
817.542	785.30482
817.727	887.99004
817.913	300.82215
818.098	438.72812
818.284	364.4843
818.469	566.41017
818.655	579.64063
818.84	987.42994
819.025	256.21899
819.211	888.41287
819.396	1191.39736
819.581	336.54152
819.767	541.21441
819.952	875.72587
820.137	1047.26045
820.322	1016.30374
820.508	1286.08435
820.693	728.43256
820.878	687.20412
821.063	740.74879
821.248	958.74469
821.433	212.84222
821.618	819.00179
821.804	443.0141
821.989	418.57589
822.174	793.99711
822.359	1284.61961
822.544	64.94264
822.729	800.99176
822.914	172.64319
823.099	505.30775
823.284	437.4422
823.469	458.01033
823.653	729.2821
823.838	740.53648
824.023	499.10541
824.208	447.51374
824.393	823.66169
824.578	763.4584
824.762	60.59969
824.947	482.63113
825.132	577.29369
825.317	562.99496
825.501	740.53648
825.686	563.42188
825.871	405.49122
826.056	890.52693
826.24	840.38987
826.425	966.76193
826.609	207.01044
826.794	365.12883
826.979	709.73728
827.163	513.21929
827.348	273.24958
827.532	315.45945
827.717	541.0008
827.901	674.23001
828.086	615.46356
828.27	439.79967
828.455	828.95628
828.639	880.16684
828.823	641.45303
829.008	271.95647
829.192	324.06621
829.376	645.92455
829.561	243.49335
829.745	376.72785
829.929	42.13434
830.114	721.63548
830.298	1003.87177
830.482	534.59186
830.666	890.31553
830.85	339.76704
831.035	580.49402
831.219	2.77138
831.403	149.49174
831.587	134.11887
831.771	952.20302
831.955	683.16355
832.139	405.27667
832.323	691.88207
832.507	62.77126
832.691	492.04607
832.875	65.3769
833.059	248.02346
833.243	-59.1102
833.427	411.06898
833.611	453.51223
833.795	198.58463
833.979	747.32977
834.163	354.38496
834.346	851.81974
834.53	591.37276
834.714	704.8493
834.898	550.39823
835.082	466.79044
835.265	694.00819
835.449	294.79289
835.633	65.15977
835.816	543.7776
836	165.50508
836.184	595.42469
836.367	982.36946
836.551	821.96725
836.735	917.57595
836.918	-29.67641
837.102	507.01853
837.285	513.21929
837.469	504.66619
837.652	826.62676
837.836	375.43929
838.019	286.17749
838.203	603.10062
838.386	285.53123
838.569	266.56789
838.753	1179.86063
838.936	193.61438
839.12	405.06211
839.303	662.10208
839.486	654.01431
839.669	247.37635
839.853	448.79923
840.036	456.93942
840.219	411.498
840.402	7.99414
840.586	541.64162
840.769	643.5824
840.952	94.0224
841.135	863.03436
841.318	292.42391
841.501	241.7674
841.684	-26.40804
841.868	829.80334
842.051	410.21093
842.234	751.36264
842.417	204.85022
842.6	650.60833
842.783	585.40058
842.966	609.92214
843.149	1390.36826
843.331	848.4335
843.514	2482.84071
843.697	3583.66035
843.88	3485.16434
844.063	2167.45099
844.246	1229.13086
844.429	837.84939
844.611	744.78244
844.794	785.72888
844.977	676.99541
845.16	812.85823
845.342	792.30122
845.525	564.27571
845.708	47.78391
845.89	506.59084
846.073	173.07575
846.256	580.92071
846.438	433.79849
846.621	1252.80124
846.803	499.31931
846.986	149.49174
847.168	295.65429
847.351	873.18793
847.533	630.37809
847.716	762.39754
847.898	841.87173
848.081	-34.03487
848.263	453.51223
848.446	193.61438
848.628	728.00778
848.81	306.6349
848.993	267.64569
849.175	205.93035
849.357	399.69783
849.539	541.64162
849.722	229.467
849.904	173.72457
850.086	587.96022
850.268	1167.27132
850.451	1158.87622
850.633	596.06442
850.815	192.96602
850.997	1222.63481
851.179	87.94861
851.361	541.42802
851.543	409.13833
851.725	778.09491
851.907	363.62492
852.089	887.99004
852.271	473.64146
852.453	1260.54876
852.635	789.75724
852.817	404.84756
852.999	420.07705
853.181	319.97831
853.363	431.86928
853.545	492.26002
853.727	424.15125
853.908	485.41311
854.09	684.43957
854.272	1014.82898
854.454	489.47864
854.636	828.1092
854.817	248.45486
854.999	822.39087
855.181	570.67866
855.362	551.67948
855.544	243.27761
855.726	813.28196
855.907	432.08364
856.089	355.24461
856.27	471.71476
856.452	391.54228
856.634	816.03607
856.815	679.97328
856.997	801.20369
857.178	346.00203
857.36	58.21078
857.541	121.33772
857.722	334.39099
857.904	591.37276
858.085	407.85117
858.267	843.56521
858.448	453.72644
858.629	600.54218
858.811	106.59951
858.992	657.8456
859.173	588.6001
859.354	642.51774
859.536	848.0102
859.717	-2.45241
859.898	491.61818
860.079	504.66619
860.26	494.82722
860.441	834.03834
860.623	478.35066
860.804	348.79661
860.985	661.03801
861.166	413.4285
861.347	-124.20161
861.528	-16.60537
861.709	721.21062
861.89	443.44267
862.071	803.32299
862.252	509.37069
862.433	267.21457
862.614	1437.30771
862.794	298.02301
862.975	684.22691
863.156	1043.68172
863.337	503.59688
863.518	669.33682
863.699	517.70874
863.879	699.96061
864.06	418.57589
864.241	654.65289
864.422	554.66887
864.602	188.8594
864.783	990.17075
864.964	254.70946
865.144	478.5647
865.325	320.83897
865.506	674.8682
865.686	309.00272
865.867	592.43911
866.047	449.01348
866.228	671.67713
866.408	173.94084
866.589	621.21712
866.769	709.31227
866.95	500.17487
867.13	333.96086
867.31	548.90337
867.491	581.34739
867.671	51.25998
867.852	248.88626
868.032	810.52764
868.212	540.14635
868.393	890.10413
868.573	299.53027
868.753	370.9289
868.933	399.05405
869.113	489.05072
869.294	490.12052
869.474	674.01728
869.654	312.87693
869.834	571.31888
870.014	558.08497
870.194	159.87982
870.374	566.62361
870.555	374.58022
870.735	424.79449
870.915	550.61178
871.095	411.06898
871.275	631.86916
871.455	756.45612
871.634	280.79156
871.814	828.1092
871.994	461.22286
872.174	592.22584
872.354	952.6251
872.534	240.25711
872.714	411.28349
872.894	311.37036
873.073	592.86564
873.253	719.08622
873.433	222.99097
873.613	70.37034
873.792	810.31576
873.972	359.97225
874.152	298.02301
874.331	688.05471
874.511	1003.87177
874.691	239.39405
874.87	325.78726
875.05	369.42529
875.229	297.59235
875.409	545.91344
875.588	291.99316
875.768	610.77472
875.947	1029.36341
876.127	835.94392
876.306	539.93273
876.486	454.58327
876.665	487.55293
876.844	418.57589
877.024	1216.97613
877.203	550.82532
877.382	383.59922
877.562	207.44247
877.741	447.72799
877.92	664.6557
878.1	800.99176
878.279	382.74039
878.458	321.26929
878.637	373.29157
878.816	717.59906
878.996	499.10541
879.175	541.21441
879.354	323.42079
879.533	788.9092
879.712	461.86532
879.891	579.85398
880.07	880.58976
880.249	695.49639
880.428	530.53219
880.607	835.52046
880.786	182.15784
880.965	816.45976
881.144	605.44568
881.323	184.536
881.502	362.55065
881.68	417.07466
881.859	200.52927
882.038	660.18673
882.217	439.79967
882.396	14.30359
882.574	355.45952
882.753	458.22451
882.932	361.47635
883.111	730.55637
883.289	436.5849
883.468	555.94995
883.647	448.58499
883.825	633.14718
884.004	662.52769
884.182	503.59688
884.361	419.21925
884.539	312.23127
884.718	836.15564
884.896	101.82956
885.075	395.19109
885.253	826.83854
885.432	393.47406
885.61	123.28777
885.789	326.43262
885.967	390.25436
886.145	714.41208
886.324	599.26288
886.502	376.94261
886.68	628.88694
886.859	282.29972
887.037	783.39646
887.215	456.08266
887.393	861.76496
887.572	162.47624
887.75	756.66833
887.928	754.1217
888.106	664.01731
888.284	792.7252
888.462	679.54788
888.64	397.33724
888.819	527.75422
888.997	570.46525
889.175	341.27216
889.353	137.58393
889.531	488.62279
889.709	377.15736
889.887	360.61687
890.065	798.23646
890.242	673.59181
890.42	808.83256
890.598	405.70576
890.776	726.94582
890.954	384.02863
891.132	176.31969
891.309	285.53123
891.487	649.96967
891.665	421.79257
891.843	407.4221
892.02	318.04174
892.198	624.4131
892.376	537.58286
892.553	778.09491
892.731	1092.28174
892.909	657.63276
893.086	810.95139
893.264	437.01355
893.441	534.16455
893.619	382.9551
893.797	475.99615
893.974	516.63988
894.151	571.10548
894.329	247.59205
894.506	131.3032
894.684	399.69783
894.861	592.86564
895.039	248.02346
895.216	297.37701
895.393	506.59084
895.571	15.60881
895.748	210.68244
895.925	946.08233
896.102	671.67713
896.28	377.37211
896.457	169.61513
896.634	323.42079
896.811	111.15186
896.988	335.25122
897.166	499.5332
897.343	329.65925
897.52	651.0341
897.697	339.55202
897.874	932.57098
898.051	777.24659
898.228	434.44153
898.405	215.86564
898.582	80.57147
898.759	247.59205
898.936	730.76874
899.113	829.37981
899.29	760.48791
899.467	802.05143
899.643	674.01728
899.82	873.39944
899.997	815.61237
900.174	-106.71116
900.351	680.61136
900.527	454.36907
900.704	438.5138
900.881	843.14185
901.058	212.84222
901.234	661.67645
901.411	733.95418
901.588	384.88743
901.764	625.05226
901.941	828.95628
902.117	507.23237
902.294	391.32763
902.471	825.56783
902.647	306.41963
902.824	316.96582
903	577.93378
903.176	552.32009
903.353	602.88742
903.529	270.0167
903.706	600.32896
903.882	309.21797
904.058	138.01703
904.235	138.66667
904.411	56.25605
904.587	497.3942
904.764	512.15028
904.94	303.83631
905.116	409.35286
905.292	622.92168
905.469	536.72832
905.645	417.71805
905.821	761.97319
905.997	157.93235
906.173	205.93035
906.349	346.64696
906.525	459.29538
906.702	423.50799
906.878	241.98315
907.054	321.6996
907.23	557.65797
907.406	316.53543
907.582	912.92835
907.757	524.12112
907.933	375.43929
908.109	530.31851
908.285	520.70135
908.461	582.84073
908.637	146.89411
908.813	308.35697
908.988	569.18475
909.164	675.7191
909.34	549.33048
909.516	318.90246
909.691	226.66091
909.867	865.99612
910.043	501.67205
910.219	622.49555
910.394	857.1101
910.57	659.54826
910.745	826.20319
910.921	772.58044
911.097	76.66511
911.272	-51.25793
911.448	811.79889
911.623	131.0866
911.799	161.39443
911.974	42.13434
912.149	343.85218
912.325	514.28827
912.5	541.0008
912.676	313.30737
912.851	136.93426
913.026	709.73728
913.202	127.62072
913.377	234.86257
913.552	152.522
913.727	1000.28892
913.903	569.39817
914.078	290.27012
914.253	593.93193
914.428	408.92381
914.603	-144.98719
914.779	131.7364
914.954	364.91399
915.129	610.77472
915.304	628.03483
915.479	483.70115
915.654	428.86806
915.829	625.90445
916.004	-1.36403
916.179	761.54883
916.354	260.53148
916.529	720.57331
916.704	417.28913
916.879	701.23599
917.053	817.09528
917.228	164.85607
917.403	681.46211
917.578	910.18175
917.753	506.59084
917.927	52.12893
918.102	327.07798
918.277	250.39609
918.452	449.01348
918.626	217.80909
918.801	809.25634
918.976	440.87118
919.15	356.96384
919.325	642.3048
919.499	588.17352
919.674	737.56399
919.849	420.93482
920.023	757.30495
920.198	630.37809
920.372	406.13486
920.547	645.2858
920.721	52.56339
920.895	675.08093
921.07	374.58022
921.244	743.08412
921.419	698.68518
921.593	487.98088
921.767	646.56328
921.942	651.24698
922.116	23.65623
922.29	379.3048
922.464	416.0023
922.639	313.7378
922.813	190.1563
922.987	664.6557
923.161	140.61549
923.335	604.80613
923.509	471.71476
923.683	639.96239
923.858	556.37696
924.032	858.59126
924.206	670.18786
924.38	-59.76466
924.554	276.26661
924.728	361.69121
924.902	1118.1347
925.075	610.56158
925.249	413.64299
925.423	802.05143
925.597	536.08739
925.771	377.80161
925.945	394.76184
926.119	1002.60727
926.292	558.72544
926.466	602.24783
926.64	581.9874
926.814	721.63548
926.987	5.6005
927.161	211.11441
927.335	61.90265
927.508	639.11057
927.682	-234.23273
927.856	344.71214
928.029	756.2439
928.203	687.20412
928.376	629.31299
928.55	294.57754
928.723	76.88214
928.897	445.79967
929.07	382.52567
929.244	906.58974
929.417	-100.59233
929.59	485.41311
929.764	287.03914
929.937	756.88054
930.111	933.62673
930.284	83.17539
930.457	5.81811
930.63	317.82656
930.804	426.08094
930.977	379.51954
931.15	340.84213
931.323	1072.72291
931.497	276.4821
931.67	491.40424
931.843	693.79558
932.016	31.04901
932.189	405.27667
932.362	568.11763
932.535	771.73198
932.708	664.23011
932.881	331.81013
933.054	683.5889
933.227	793.57314
933.4	114.18634
933.573	432.94108
933.746	230.5462
933.919	618.66011
934.092	464.00677
934.264	355.24461
934.437	380.80792
934.61	187.99478
934.783	356.74894
934.956	153.17129
935.128	499.74709
935.301	709.09976
935.474	303.83631
935.646	-40.57393
935.819	422.86472
935.992	492.04607
936.164	53.64952
936.337	221.47969
936.51	333.74579
936.682	364.69915
936.855	124.15442
937.027	991.22486
937.2	587.32033
937.372	207.44247
937.545	518.13627
937.717	433.36978
937.889	419.43371
938.062	574.7332
938.234	758.15377
938.406	276.05112
938.579	502.95529
938.751	580.92071
938.923	708.88725
939.096	915.04097
939.268	611.62729
939.44	452.01272
939.612	778.94322
939.784	750.08915
939.957	555.0959
940.129	550.61178
940.301	573.45287
940.473	558.72544
940.645	757.51716
940.817	715.47444
940.989	481.98909
941.161	356.53404
941.333	629.73903
941.505	229.467
941.677	556.59047
941.849	122.4211
942.021	494.82722
942.193	128.70386
942.365	52.99785
942.537	592.01257
942.708	644.43411
942.88	614.82421
943.052	170.69662
943.224	155.55192
943.395	394.97646
943.567	346.43199
943.739	555.73644
943.911	161.61079
944.082	270.6633
944.254	867.47691
944.425	-30.54804
944.597	296.51566
944.769	633.57317
944.94	606.9379
945.112	1104.89509
945.283	961.69862
945.455	224.2863
945.626	535.44646
945.798	313.7378
945.969	538.01012
946.14	701.02343
946.312	616.316
946.483	312.44649
946.655	333.31566
946.826	518.99132
946.997	715.89937
947.168	102.0464
947.34	226.66091
947.511	778.30699
947.682	349.65642
947.853	233.1361
948.025	720.36087
948.196	198.36855
948.367	382.09625
948.538	205.71433
948.709	601.18181
948.88	265.49005
949.051	560.00636
949.222	312.44649
949.393	642.73067
949.564	445.37114
949.735	197.50422
949.906	216.72941
950.077	108.33383
950.248	680.61136
950.419	201.17746
950.59	176.31969
950.761	62.33696
950.931	751.36264
951.102	700.5983
951.273	512.57789
951.444	599.68932
951.614	779.57943
951.785	302.54457
951.956	475.56804
952.126	880.80121
952.297	942.07167
952.468	234.21515
952.638	199.44893
952.809	390.0397
952.98	300.39153
953.15	320.40865
953.321	72.32405
953.491	40.61309
953.662	483.70115
953.832	210.46646
954.002	241.55165
954.173	-298.90196
954.343	526.04458
954.514	-39.26599
954.684	120.2543
954.854	497.82201
955.025	388.32237
955.195	419.64816
955.365	476.85236
955.535	146.02817
955.706	662.9533
955.876	555.73644
956.046	801.8395
956.216	677.63355
956.386	542.28243
956.557	558.29846
956.727	140.18243
956.897	514.50206
957.067	317.82656
957.237	362.76551
957.407	719.51111
957.577	514.50206
957.747	317.82656
957.917	305.55855
958.087	96.40816
958.257	592.01257
958.427	437.87085
958.596	-121.35859
958.766	808.40878
958.936	-238.40685
959.106	734.59124
959.276	269.80116
959.445	223.63864
959.615	625.05226
959.785	664.23011
959.955	928.55883
960.124	657.8456
960.294	704.21169
960.464	251.04314
960.633	74.27761
960.803	435.08455
960.972	394.97646
961.142	69.28489
961.311	302.11397
961.481	425.86654
961.65	524.976
961.82	521.12884
961.989	993.96539
962.159	566.19673
962.328	1007.03283
962.498	803.32299
962.667	-166.44712
962.836	336.54152
963.006	600.75539
963.175	345.14211
963.344	605.44568
963.513	333.10059
963.683	-209.86121
963.852	312.66171
964.021	271.52542
964.19	95.32375
964.359	293.93146
964.528	478.35066
964.698	44.95927
964.867	437.4422
965.036	520.70135
965.205	831.28565
965.374	503.59688
965.543	739.47491
965.712	327.93842
965.881	424.79449
966.05	282.73061
966.219	413.64299
966.387	510.22597
966.556	577.50706
966.725	324.71161
966.894	698.89775
967.063	361.69121
967.232	611.62729
967.4	92.93789
967.569	378.66058
967.738	983.00205
967.906	232.92028
968.075	672.10263
968.244	64.07411
968.412	180.86058
968.581	557.23098
968.75	256.00335
968.918	335.46627
969.087	180.64437
969.255	548.47626
969.424	501.45817
969.592	769.82287
969.761	481.56106
969.929	552.96068
970.098	562.99496
970.266	-120.70256
970.434	259.2378
970.603	542.92323
970.771	564.70261
970.939	507.4462
971.108	913.98467
971.276	196.20766
971.444	513.86068
971.612	-219.08004
971.781	276.91307
971.949	1095.43547
972.117	438.72812
972.285	878.68658
972.453	-66.3102
972.621	231.1937
972.789	388.75172
972.957	922.8566
973.125	173.5083
973.293	359.32762
973.461	464.86331
973.629	926.447
973.797	220.83197
973.965	518.13627
974.133	322.56021
974.301	421.57813
974.469	15.17374
974.637	398.83945
974.805	784.88075
974.972	623.56087
975.14	759.63915
975.308	405.06211
975.476	168.96621
975.643	715.68691
975.811	165.07241
975.979	1006.8221
976.146	339.98206
976.314	733.52948
976.482	452.22694
976.649	196.85595
976.817	615.88979
976.984	751.36264
977.152	239.17828
977.319	843.14185
977.487	844.62359
977.654	662.31488
977.822	52.78062
977.989	446.65672
978.156	287.25455
978.324	543.13682
978.491	217.16128
978.658	-48.64104
978.826	518.99132
978.993	493.32971
979.16	422.43586
979.328	388.32237
979.495	641.24009
979.662	121.98775
979.829	242.84613
979.996	724.39696
980.163	722.06034
980.33	54.30118
980.498	344.92713
980.665	659.97391
980.832	-68.92888
980.999	580.49402
981.166	309.21797
981.333	778.09491
981.5	502.74142
981.667	1433.5544
981.833	-58.89205
982	826.83854
982.167	84.26029
982.334	470.85842
982.501	354.38496
982.668	505.9493
982.834	-67.40129
983.001	874.03393
983.168	885.6644
983.335	278.42144
983.501	358.89786
983.668	401.84366
983.835	299.9609
984.001	669.12406
984.168	146.46114
984.334	747.96657
984.501	426.93854
984.668	252.12152
984.834	84.91121
985.001	41.26507
985.167	826.62676
985.334	6.25333
985.5	204.20212
985.666	54.95282
985.833	-140.39102
985.999	394.54721
986.165	393.25942
986.332	871.9189
986.498	418.14698
986.664	471.71476
986.831	476.2102
986.997	480.91901
987.163	69.06779
987.329	438.94243
987.495	-71.98435
987.662	695.2838
987.828	47.1321
987.994	597.7703
988.16	610.13528
988.326	403.77477
988.492	249.53334
988.658	645.07288
988.824	493.11577
988.99	287.03914
989.156	232.48865
989.322	1038.41826
989.488	560.86028
989.654	326.43262
989.82	320.40865
989.985	694.646
990.151	551.89302
990.317	1081.76748
990.483	-23.14007
990.648	639.11057
990.814	393.47406
990.98	574.30643
991.146	528.8227
991.311	717.38661
991.477	605.44568
991.643	49.95651
991.808	48.87023
991.974	-76.56822
992.139	360.18713
992.305	428.2249
992.47	211.76235
992.636	485.6271
992.801	670.82613
992.967	495.04114
993.132	332.45537
993.298	1062.41371
993.463	202.47378
993.628	523.69367
993.794	219.10465
993.959	705.69944
994.124	20.82903
994.29	532.02792
994.455	708.67474
994.62	521.55632
994.785	793.57314
994.95	279.71426
995.116	696.13417
995.281	420.50594
995.446	336.11143
995.611	-45.15225
995.776	225.14982
995.941	558.29846
996.106	221.47969
996.271	481.13303
996.436	619.51247
996.601	765.15571
996.766	292.20854
996.931	622.70861
997.096	452.22694
997.261	184.536
997.425	526.25829
997.59	367.06231
997.755	363.62492
997.92	384.45803
998.085	351.37598
998.249	280.36064
998.414	-87.48548
998.579	-12.46756
998.744	346.43199
998.908	762.82189
999.073	809.04445
999.237	680.39867
999.402	143.21371
999.567	440.65688
999.731	368.78086
999.896	5.16527
1000.06	735.01593
1000.225	542.28243
1000.389	508.51538
1000.553	533.30991
1000.718	663.16611
1000.882	-102.1219
1001.047	462.50777
1001.211	203.33796
1001.375	786.36497
1001.54	199.01678
1001.704	216.08158
1001.868	816.03607
1002.032	940.38284
1002.197	548.68981
1002.361	248.45486
1002.525	509.79833
1002.689	561.92764
1002.853	211.97833
1003.017	120.03761
1003.181	263.11867
1003.345	322.34506
1003.509	760.91228
1003.673	583.90736
1003.837	766.21648
1004.001	388.53705
1004.165	390.46902
1004.329	744.78244
1004.493	543.7776
1004.657	456.08266
1004.821	147.54354
1004.985	586.89373
1005.149	459.08121
1005.312	511.29505
1005.476	397.33724
1005.64	1116.66386
1005.804	356.10424
1005.967	761.54883
1006.131	741.17341
1006.295	615.88979
1006.458	576.22684
1006.622	403.13108
1006.785	444.9426
1006.949	856.8985
1007.113	361.04661
1007.276	382.74039
1007.44	753.90947
1007.603	23.87369
1007.767	447.29949
1007.93	296.51566
1008.093	387.03432
1008.257	524.33484
1008.42	-58.6739
1008.584	523.69367
1008.747	425.65213
1008.91	478.77873
1009.073	72.97525
1009.237	350.08632
1009.4	567.26391
1009.563	-202.83966
1009.726	361.90607
1009.889	941.22727
1010.053	559.57939
1010.216	354.59987
1010.379	735.44062
1010.542	919.47707
1010.705	733.74183
1010.868	760.91228
1011.031	583.90736
1011.194	383.81393
1011.357	563.63534
1011.52	118.52073
1011.683	205.71433
1011.846	391.75693
1012.009	567.69077
1012.171	448.79923
1012.334	522.41128
1012.497	686.56617
1012.66	340.19708
1012.823	404.84756
1012.985	788.27316
1013.148	621.85634
1013.311	510.22597
1013.473	477.28045
1013.636	85.56211
1013.799	714.1996
1013.961	744.99473
1014.124	431.86928
1014.286	570.67866
1014.449	-23.57578
1014.612	784.03259
1014.774	192.31765
1014.936	329.87434
1015.099	-34.03487
1015.261	62.9884
1015.424	518.5638
1015.586	496.75248
1015.748	303.40574
1015.911	73.19231
1016.073	1498.15076
1016.235	633.57317
1016.398	488.83675
1016.56	924.12384
1016.722	-13.55639
1016.884	222.34329
1017.047	536.08739
1017.209	561.92764
1017.371	33.87512
1017.533	258.15969
1017.695	785.72888
1017.857	697.19712
1018.019	853.30112
1018.181	652.73711
1018.343	345.14211
1018.505	479.42083
1018.667	-202.18149
1018.829	183.45504
1018.991	510.22597
1019.153	647.84072
1019.315	-183.75984
1019.477	251.90585
1019.638	167.45202
1019.8	104.64827
1019.962	590.51966
1020.124	278.20596
1020.285	305.34328
1020.447	560.43332
1020.609	252.12152
1020.77	263.33426
1020.932	922.43417
1021.094	277.12856
1021.255	158.36513
1021.417	684.8649
1021.578	107.0331
1021.74	535.44646
1021.901	344.28217
1022.063	368.56605
1022.224	566.41017
1022.386	588.38681
1022.547	615.67667
1022.709	567.69077
1022.87	636.55496
1023.031	520.4876
1023.193	204.63419
1023.354	623.98698
1023.515	481.56106
1023.676	571.10548
1023.838	490.76239
1023.999	424.36566
1024.16	515.35721
1024.321	712.49974
1024.482	591.37276
1024.644	968.44955
1024.805	759.85134
1024.966	436.79922
1025.127	94.67308
1025.288	381.88153
1025.449	717.59906
1025.61	461.0087
1025.771	746.48068
1025.932	684.65224
1026.093	590.51966
1026.253	421.14926
1026.414	-325.34738
1026.575	241.3359
1026.736	58.42796
1026.897	316.75063
1027.058	601.60822
1027.218	381.45209
1027.379	17.349
1027.54	683.80157
1027.7	402.91651
1027.861	669.12406
1028.022	450.72737
1028.182	472.78517
1028.343	447.08523
1028.504	135.20175
1028.664	304.26688
1028.825	540.78719
1028.985	527.11311
1029.146	199.01678
1029.306	151.65624
1029.466	1080.50557
1029.627	783.18441
1029.787	391.97157
1029.948	340.84213
1030.108	497.3942
1030.268	786.36497
1030.429	180.42815
1030.589	371.57329
1030.749	336.75657
1030.909	393.90332
1031.07	559.79288
1031.23	454.36907
1031.39	-27.27956
1031.55	619.08629
1031.71	-17.25876
1031.87	396.26418
1032.03	708.24971
1032.19	432.72672
1032.35	437.65652
1032.51	694.22079
1032.67	151.4398
1032.83	199.665
1032.99	383.81393
1033.15	589.66654
1033.31	711.43728
1033.47	52.34616
1033.63	508.51538
1033.79	350.9461
1033.949	203.33796
1034.109	700.81087
1034.269	393.25942
1034.429	771.73198
1034.588	713.98712
1034.748	246.94493
1034.908	508.30154
1035.067	523.47994
1035.227	471.92885
1035.387	571.31888
1035.546	834.03834
1035.706	77.96729
1035.865	793.78513
1036.025	362.12093
1036.184	359.5425
1036.344	382.52567
1036.503	753.06055
1036.662	173.94084
1036.822	581.56073
1036.981	321.05413
1037.14	581.9874
1037.3	189.29171
1037.459	377.37211
1037.618	566.83704
1037.778	745.41929
1037.937	617.16842
1038.096	492.47396
1038.255	468.93154
1038.414	246.5135
1038.573	1002.18577
1038.733	538.43738
1038.892	624.4131
1039.051	1023.88732
1039.21	1027.25731
1039.369	246.5135
1039.528	538.86463
1039.687	625.05226
1039.846	689.11791
1040.005	168.7499
1040.164	535.87375
1040.322	330.73471
1040.481	478.99277
1040.64	336.11143
1040.799	59.29667
1040.958	1060.94074
1041.116	497.60811
1041.275	213.27416
1041.434	507.87388
1041.593	178.04964
1041.751	373.07679
1041.91	695.70899
1042.069	23.22129
1042.227	547.40844
1042.386	929.19236
1042.544	315.88985
1042.703	423.07914
1042.861	605.44568
1043.02	114.61981
1043.178	677.63355
1043.337	687.84206
1043.495	616.52911
1043.653	211.11441
1043.812	146.24466
1043.97	339.76704
1044.129	304.69745
1044.287	524.54856
1044.445	556.59047
1044.603	-58.6739
1044.762	-65.87378
1044.92	923.70143
1045.078	419.21925
1045.236	284.23867
1045.394	466.57632
1045.552	989.7491
