Data from deutdg_660ms_6_SR4014911__0__16-51-31-248.txt Node

Date: Sun Jul 13 16:51:31 EDT 2025
User: cryst
Spectrometer: SR401491
Trigger mode: 0
Integration Time (sec): 6.600000E-1
Scans to average: 6
Electric dark correction enabled: true
Nonlinearity correction enabled: true
Boxcar width: 0
XAxis mode: Wavelengths
Number of Pixels in Spectrum: 3648
>>>>>Begin Spectral Data<<<<<
344.912	-1191.47231
345.129	-1188.60062
345.347	-1246.31027
345.565	-1175.97039
345.783	533.91291
346.001	261.17591
346.219	271.95408
346.437	364.66095
346.654	814.72731
346.872	263.87083
347.09	-134.23004
347.308	664.51147
347.526	441.54741
347.743	133.68331
347.961	1012.26322
348.179	474.56671
348.397	639.85355
348.614	998.74092
348.832	1360.64625
349.05	1309.09251
349.268	1451.41224
349.485	1426.7397
349.703	1220.29226
349.921	1746.80515
350.138	1607.99546
350.356	1613.70781
350.574	1059.46538
350.791	1276.31617
351.009	1571.28153
351.227	1415.44133
351.444	1350.54942
351.662	1359.77593
351.879	1235.65845
352.097	1395.44478
352.314	1283.81515
352.532	1418.22274
352.75	1527.6029
352.967	1584.96601
353.185	1610.24586
353.402	1335.22553
353.62	1271.08351
353.837	1753.88213
354.055	1516.50333
354.272	1789.94212
354.49	2040.64681
354.707	2027.08255
354.925	1310.13814
355.142	1559.84586
355.359	1741.62625
355.577	1786.66499
355.794	1754.22732
356.012	2007.50311
356.229	1622.36157
356.446	1323.20635
356.664	1745.07891
356.881	1992.38452
357.099	1511.99336
357.316	1479.02233
357.533	1765.96248
357.751	1371.61081
357.968	2310.94389
358.185	1797.01311
358.402	1600.89735
358.62	1854.23538
358.837	1937.02926
359.054	1349.50478
359.272	1302.64387
359.489	1432.30091
359.706	1566.25711
359.923	1779.24756
360.141	1702.59459
360.358	1866.12013
360.575	1723.84127
360.792	1513.72802
361.009	1580.11627
361.226	1713.65091
361.444	2082.86443
361.661	1748.70395
361.878	1668.3734
362.095	1415.26749
362.312	1863.53671
362.529	1728.84933
362.746	1839.93569
362.963	1318.67649
363.181	1388.13941
363.398	1631.35982
363.615	2259.81865
363.832	1370.04462
364.049	1398.05355
364.266	2181.42605
364.483	1796.3233
364.7	1571.28153
364.917	1194.7855
365.134	1720.73257
365.351	1639.1454
365.568	1923.61185
365.785	1513.55456
366.002	1326.51632
366.219	1499.67541
366.436	1916.55778
366.652	1997.71085
366.869	1596.04925
367.086	2062.1027
367.303	1343.23643
367.52	1484.57703
367.737	2067.59413
367.954	1912.084
368.171	1558.63282
368.387	2253.31819
368.604	1578.21088
368.821	1793.04658
369.038	1537.31282
369.255	1806.49706
369.471	1380.83281
369.688	2089.55465
369.905	1955.08598
370.122	1787.35493
370.339	1853.37406
370.555	1362.5609
370.772	1378.57099
370.989	2372.61688
371.205	1515.80952
371.422	1738.86395
371.639	1526.73584
371.855	2172.0054
372.072	1605.57184
372.289	1408.13931
372.505	2143.04916
372.722	1381.87669
372.939	1644.16212
373.155	2079.26169
373.372	1457.49139
373.589	1990.15075
373.805	1564.17788
374.022	1496.72555
374.238	1394.74909
374.455	1844.58782
374.671	1981.21477
374.888	1871.11437
375.104	1132.87279
375.321	1310.13814
375.537	1557.07315
375.754	1785.45758
375.97	1742.66207
376.187	2248.52796
376.403	1514.76878
376.62	1782.18016
376.836	1479.54311
377.053	1569.20252
377.269	1530.55077
377.486	1434.90748
377.702	968.8691
377.918	1190.59106
378.135	1739.72718
378.351	1860.60869
378.568	1563.83133
378.784	1622.01545
379	1677.19024
379.217	1423.61121
379.433	1404.66172
379.649	1882.30666
379.865	1563.83133
380.082	2193.41387
380.298	1444.46361
380.514	2290.94321
380.731	1607.30301
380.947	1375.43905
381.163	1694.81914
381.379	1596.39556
381.596	1662.1488
381.812	2102.76132
382.028	1849.23954
382.244	1665.95282
382.46	1421.52543
382.676	2307.69634
382.893	1713.1327
383.109	1633.60912
383.325	1585.65878
383.541	2043.56528
383.757	1098.55156
383.973	1850.44548
384.189	1967.1205
384.405	1681.85733
384.622	1713.1327
384.838	1962.13509
385.054	1889.53736
385.27	2151.7889
385.486	1570.58853
385.702	1448.63292
385.918	1856.30248
386.134	1855.26894
386.35	1966.9486
386.566	2247.67252
386.782	2185.70768
386.998	2211.22004
387.214	1962.307
387.43	1921.3753
387.646	2409.14955
387.861	2169.43588
388.077	1887.98801
388.293	2057.29728
388.509	2098.98829
388.725	1869.56448
388.941	1922.06348
389.157	1774.07197
389.373	1870.42554
389.588	2034.63773
389.804	1919.65481
390.02	2318.80572
390.236	1564.35115
390.452	1692.74548
390.668	1794.42628
390.883	2385.42264
391.099	2003.72385
391.315	2037.04144
391.531	1669.06498
391.746	1985.85478
391.962	1950.7873
392.178	1981.73034
392.393	1868.35898
392.609	2547.42337
392.825	1903.99583
393.041	1753.01914
393.256	2118.53683
393.472	2258.45019
393.687	2176.45898
393.903	2451.29144
394.119	2135.85078
394.334	2274.0147
394.55	2539.75801
394.766	2128.30869
394.981	2542.14288
395.197	2556.79106
395.412	2759.35959
395.628	2645.2998
395.843	2858.49987
396.059	3598.61794
396.274	2613.99327
396.49	3138.00336
396.705	2266.48948
396.921	1769.24094
397.136	2238.26194
397.352	2230.90359
397.567	2104.64774
397.783	2179.88459
397.998	2134.30816
398.214	2178.34309
398.429	1786.14753
398.644	2726.90925
398.86	2053.34966
399.075	2492.21454
399.29	1960.75972
399.506	1897.28345
399.721	2068.45212
399.936	1947.69204
400.152	1832.52588
400.367	2133.96534
400.582	2097.78773
400.798	2474.31362
401.013	1733.68422
401.228	2273.1596
401.444	2305.47423
401.659	2193.75635
401.874	2595.78186
402.089	2292.48194
402.304	2172.0054
402.52	2289.57541
402.735	1815.97926
402.95	1840.45261
403.165	2303.93581
403.38	2625.73473
403.596	2083.20754
403.811	2372.1046
404.026	2858.33021
404.241	1983.96445
404.456	2039.61673
404.671	2676.25344
404.886	2497.15781
405.101	2081.14887
405.316	2326.15396
405.532	2612.97218
405.747	2415.80526
405.962	2386.78844
406.177	2343.06888
406.392	2124.02298
406.607	2640.02623
406.822	2693.42568
407.037	2956.50828
407.252	3539.81302
407.467	3457.70938
407.682	3635.3364
407.896	3965.54188
408.111	3981.33626
408.326	4219.9269
408.541	5002.75267
408.756	5643.7467
408.971	5845.41197
409.186	5895.86394
409.401	5229.8836
409.616	3022.74719
409.83	2448.90352
410.045	2076.85973
410.26	1964.7138
410.475	1800.8069
410.69	2244.59285
410.905	2223.37323
411.119	1775.6247
411.334	2006.81599
411.549	2218.92304
411.764	2387.9835
411.978	2634.58217
412.193	2218.92304
412.408	2025.1936
412.623	1729.02201
412.837	2733.87613
413.052	2450.77975
413.267	2322.56539
413.481	2058.84192
413.696	1964.36998
413.911	1996.50818
414.125	1955.60179
414.34	1832.69821
414.554	1961.27549
414.769	2377.22723
414.984	2125.39444
415.198	1626.16873
415.413	1744.73365
415.627	2248.52796
415.842	1987.74505
416.056	2182.96747
416.271	1901.75847
416.485	2259.47654
416.7	2233.98394
416.914	2009.04911
417.129	1983.96445
417.343	2375.69048
417.558	2051.97652
417.772	2441.39809
417.987	2243.73736
418.201	1915.00921
418.415	1766.30759
418.63	2146.13392
418.844	2097.44471
419.059	2485.73664
419.273	2163.95387
419.487	2755.1129
419.702	2291.45612
419.916	2770.90944
420.13	2157.27201
420.345	2009.39265
420.559	2100.53183
420.773	2144.76294
420.988	2210.0217
421.202	2774.13631
421.416	2129.33721
421.63	2235.69517
421.845	2342.21469
422.059	2230.21905
422.273	1842.34796
422.487	2328.37536
422.701	2908.02647
422.916	2868.84853
423.13	2210.53528
423.344	2057.12565
423.558	1956.11761
423.772	1821.66776
423.986	2214.13017
424.201	2074.2861
424.415	2644.10903
424.629	2421.26586
424.843	2140.47841
425.057	2471.41495
425.271	1717.96912
425.485	1771.1389
425.699	1754.74511
425.913	2471.92649
426.127	2175.60255
426.341	2129.85146
426.555	2156.75799
426.769	2570.07408
426.983	2758.68013
427.197	2351.4393
427.411	2178.17181
427.625	2595.95208
427.839	2163.95387
428.053	2074.11452
428.267	2059.52842
428.481	2354.34308
428.695	2053.69294
428.908	1861.64213
429.122	2505.16858
429.336	2291.28515
429.55	2193.92758
429.764	2632.3704
429.978	3404.23595
430.191	3668.00392
430.405	4842.10869
430.619	5229.04754
430.833	6693.75271
431.047	8304.08598
431.26	10953.19234
431.474	12846.89535
431.688	14089.77129
431.901	14663.61358
432.115	17370.23484
432.329	19028.36519
432.543	20766.32987
432.756	23693.87632
432.97	24628.91374
433.184	17818.89725
433.397	8844.97606
433.611	3687.36497
433.824	3045.43708
434.038	2462.54768
434.252	2393.27563
434.465	2204.20091
434.679	2184.16633
434.892	2371.42155
435.106	1651.94563
435.319	1924.98815
435.533	2555.76919
435.747	2552.19253
435.96	1929.63289
436.174	2577.56601
436.387	2450.60918
436.601	2278.80301
436.814	2629.81829
437.027	1909.33072
437.241	2460.16014
437.454	1860.60869
437.668	2576.54443
437.881	2520.16506
438.095	2313.84946
438.308	2440.37456
438.521	2817.0926
438.735	2318.12212
438.948	2377.22723
439.161	2207.28258
439.375	2201.97517
439.588	2440.20397
439.801	2513.68969
440.015	2329.05885
440.228	2682.88475
440.441	3090.12364
440.654	3450.79463
440.868	3154.91644
441.081	2115.96502
441.294	2666.5605
441.507	2586.24889
441.721	2174.23223
441.934	2560.7081
442.147	2224.05784
442.36	2483.17941
442.573	2640.36647
442.786	2215.15725
443	2847.64091
443.213	2447.36838
443.426	2541.29115
443.639	2976.84247
443.852	2687.30531
444.065	2943.96657
444.278	2730.47773
444.491	2880.89212
444.704	2595.44142
444.917	2790.43856
445.13	2649.04211
445.343	2500.7372
445.556	3529.36345
445.769	3564.41666
445.982	2827.2766
446.195	2983.61952
446.408	2884.45399
446.621	3174.8702
446.834	2623.52271
447.047	2637.98475
447.26	2449.07409
447.473	2802.32359
447.686	2743.0511
447.899	2829.48297
448.111	3065.24393
448.324	2849.16803
448.537	2667.58087
448.75	2645.12969
448.963	2664.51973
449.176	3091.47745
449.388	2830.16184
449.601	2719.43191
449.814	2593.56896
450.027	2786.53311
450.239	2609.56847
450.452	2654.82532
450.665	2280.17104
450.878	2540.09871
451.09	2758.51027
451.303	2696.31568
451.516	2463.74141
451.728	2789.41977
451.941	2098.64527
452.154	2988.36315
452.366	2877.49973
452.579	2363.39521
452.792	2905.65256
453.004	2849.50739
453.217	2452.14425
453.429	2609.0579
453.642	2444.98033
453.854	2975.82586
454.067	3189.24123
454.28	3200.7366
454.492	2188.79028
454.705	2552.0222
454.917	2382.86168
455.13	3196.84861
455.342	2845.6047
455.555	2318.12212
455.767	3281.3376
455.979	2717.05261
456.192	3001.06811
456.404	2352.46418
456.617	2794.8532
456.829	2553.04413
457.041	3029.01286
457.254	2978.87563
457.466	2587.9513
457.679	2679.14408
457.891	3157.45315
458.103	2923.28585
458.315	2869.01817
458.528	2488.97567
458.74	2703.62522
458.952	2670.47183
459.165	2585.9084
459.377	2257.59488
459.589	2044.5953
459.801	2692.23564
460.014	2669.11139
460.226	2565.64667
460.438	2539.41731
460.65	2180.74096
460.862	2722.15102
461.075	2478.23516
461.287	2125.22301
461.499	1917.59014
461.711	2046.14028
461.923	2382.52021
462.135	2590.8453
462.347	2412.2215
462.559	2682.20464
462.771	2704.98506
462.983	2265.46324
463.196	2728.43861
463.408	2962.27009
463.62	2862.06266
463.832	3025.28738
464.044	2896.32582
464.256	3069.98342
464.468	2456.91978
464.68	2704.47512
464.891	2883.77555
465.103	2398.56735
465.315	3185.52186
465.527	2251.0942
465.739	2038.92999
465.951	2353.14742
466.163	2400.10358
466.375	2119.05118
466.587	2765.30457
466.799	2172.1767
467.01	2329.22973
467.222	2308.7219
467.434	2206.94018
467.646	2220.63469
467.858	2525.78793
468.069	2335.89339
468.281	2032.40562
468.493	1737.65539
468.705	1928.08469
468.916	2172.86188
469.128	1835.11082
469.34	1966.9486
469.551	1932.21314
469.763	1518.41126
469.975	1971.41791
470.186	2143.5633
470.398	1812.87619
470.61	1968.66761
470.821	1736.61947
471.033	2007.84667
471.245	2554.57699
471.456	1688.5979
471.668	2132.76549
471.879	1889.88166
472.091	2466.6404
472.302	2555.25825
472.514	2684.07493
472.725	2153.50242
472.937	1949.41165
473.148	1779.76509
473.36	2140.47841
473.571	2374.66596
473.783	2096.93017
473.994	2183.31001
474.206	2012.31273
474.417	2000.45973
474.629	2371.59231
474.84	2562.92198
475.051	2555.42856
475.263	1923.26777
475.474	2105.16221
475.685	2393.44634
475.897	2171.66281
476.108	2717.56247
476.319	1919.3107
476.531	2124.19442
476.742	2479.94012
476.953	2673.70278
477.165	3092.83125
477.376	2344.09388
477.587	2309.57652
477.798	2404.02934
478.01	1984.8237
478.221	2390.71497
478.432	2437.13328
478.643	2355.53871
478.854	2162.06932
479.065	3138.34165
479.277	2868.00033
479.488	2766.49351
479.699	2948.03434
479.91	2605.48382
480.121	2915.99559
480.332	2648.70191
480.543	2856.63358
480.754	2207.79617
480.965	2576.71469
481.176	2736.42484
481.387	3335.54439
481.598	2765.13472
481.809	3664.29975
482.02	5179.71757
482.231	10504.80962
482.442	20023.58475
482.653	36139.65435
482.864	53620.61519
483.075	62682.13143
483.286	62682.13143
483.497	62682.13143
483.708	62682.13143
483.919	62682.13143
484.13	62682.13143
484.341	62682.13143
484.551	62682.13143
484.762	62682.13143
484.973	62682.13143
485.184	62682.13143
485.395	62682.13143
485.605	62682.13143
485.816	62682.13143
486.027	62682.13143
486.238	62682.13143
486.449	62682.13143
486.659	62682.13143
486.87	25565.32421
487.081	4920.26445
487.291	4530.29011
487.502	3857.79645
487.713	3580.42332
487.923	3743.24428
488.134	3246.87429
488.345	4202.64318
488.555	3764.27746
488.766	3167.09208
488.976	3805.49362
489.187	3590.36329
489.398	3698.81195
489.608	3701.3369
489.819	3075.06118
490.029	2845.43501
490.24	3966.21401
490.45	3570.98806
490.661	3399.51157
490.871	3061.18132
491.082	2724.87004
491.292	2852.56155
491.503	3318.66042
491.713	3228.11747
491.924	3261.57324
492.134	3084.7082
492.344	3086.23132
492.555	3182.47864
492.765	3448.26474
492.975	3320.68663
493.186	3415.03382
493.396	3291.13397
493.607	2605.99441
493.817	3463.61191
494.027	2993.61475
494.237	2825.57935
494.448	2832.87727
494.658	3139.6948
494.868	2584.88694
495.078	3138.84908
495.289	3573.51543
495.499	3077.59997
495.709	2782.62747
495.919	3019.86823
496.129	2976.5036
496.34	2601.39894
496.55	2356.73433
496.76	2998.35786
496.97	3252.11208
497.18	2879.53518
497.39	2846.28344
497.6	3300.42281
497.81	3588.51013
498.021	3495.31194
498.231	3618.99963
498.441	3120.07235
498.651	2860.36611
498.861	2443.27452
499.071	2994.12295
499.281	3249.40873
499.491	2798.07913
499.701	2852.56155
499.911	3058.81139
500.121	2987.6855
500.331	3255.82906
500.54	3821.13593
500.75	3235.38402
500.96	3080.81566
501.17	2838.13817
501.38	3034.77013
501.59	3259.37697
501.8	2772.26814
502.01	2315.72947
502.219	3015.12621
502.429	3283.87123
502.639	3516.04739
502.849	3293.83626
503.059	2892.08607
503.268	2878.17822
503.478	2640.87683
503.688	3131.57564
503.898	2858.16055
504.107	2927.69362
504.317	3637.18889
504.527	3354.78899
504.736	3256.33591
504.946	2794.51362
505.156	3185.18373
505.365	2788.74056
505.575	2798.75826
505.785	2797.06043
505.994	3251.09833
506.204	2732.68671
506.413	2733.36638
506.623	2327.00836
506.832	2686.28521
507.042	3004.96394
507.251	3142.57017
507.461	2909.38297
507.67	2897.34333
507.88	2660.26795
508.089	2787.89155
508.299	2897.34333
508.508	2777.53288
508.718	2387.12989
508.927	2556.96137
509.137	3323.55704
509.346	3033.75416
509.555	2644.10903
509.765	2727.07918
509.974	4020.98366
510.184	3179.09718
510.393	2700.73549
510.602	2735.06554
510.812	3273.90528
511.021	2857.65156
511.23	3440.50607
511.439	2583.01421
511.649	2603.95201
511.858	2965.48977
512.067	2947.01741
512.276	3027.48881
512.486	3666.48859
512.695	2792.64591
512.904	2364.93225
513.113	2739.14337
513.322	2854.76726
513.531	2891.40769
513.741	3186.02906
513.95	2366.98157
514.159	2941.08512
514.368	2410.34422
514.577	2690.36555
514.786	2571.94714
514.995	2640.02623
515.204	2776.17427
515.413	2391.0564
515.622	2478.23516
515.831	2689.00546
516.04	2601.56914
516.249	2343.92305
516.458	2452.14425
516.667	2752.56479
516.876	2950.23764
517.085	2607.69637
517.294	3026.30343
517.503	2625.56458
517.712	2602.24997
517.921	2837.79877
518.13	2911.07856
518.339	2942.4411
518.547	3408.45399
518.756	2549.63766
518.965	2783.30673
519.174	2614.16345
519.383	2685.94517
519.591	2314.19128
519.8	2180.91224
520.009	2618.92831
520.218	2494.77145
520.426	2615.01434
520.635	2869.69673
520.844	2630.66901
521.053	2830.67099
521.261	3009.70647
521.47	2752.73466
521.679	2872.07163
521.887	2739.9929
522.096	2559.00506
522.304	2321.54005
522.513	2154.70186
522.722	2258.27913
522.93	2927.01551
523.139	2624.88396
523.347	2301.71358
523.556	2276.06688
523.764	2471.92649
523.973	2385.42264
524.182	2276.06688
524.39	2731.32734
524.598	2353.65985
524.807	2087.32467
525.015	2697.84564
525.224	2741.86182
525.432	2559.68628
525.641	2203.17365
525.849	2491.36222
526.057	2539.92836
526.266	2892.76444
526.474	2121.62285
526.683	2406.5895
526.891	2695.46569
527.099	2430.82087
527.308	2557.30199
527.516	2230.90359
527.724	2652.95433
527.932	2298.12365
528.141	2909.72209
528.349	3154.40909
528.557	2684.92504
528.765	2390.71497
528.974	2180.22714
529.182	2372.27536
529.39	2514.88257
529.598	2301.20074
529.806	2189.98902
530.015	2618.58797
530.223	2303.25205
530.431	2260.67392
530.639	1999.08531
530.847	2236.72189
531.055	2498.86231
531.263	2622.67192
531.471	2012.82802
531.679	2026.91083
531.887	2594.76053
532.095	2772.60781
532.303	2873.25906
532.511	2597.9947
532.719	2386.78844
532.927	2588.80249
533.135	2682.20464
533.343	3034.6008
533.551	2699.37557
533.759	2679.82422
533.967	3068.6293
534.175	2720.45159
534.383	3196.67956
534.591	3075.39969
534.798	2948.88177
535.006	2407.10151
535.214	2563.94375
535.422	2388.66638
535.63	2759.69931
535.837	2114.76481
536.045	2251.26528
536.253	2494.60099
536.461	2537.54342
536.668	2604.80302
536.876	2985.14428
537.084	3124.97833
537.292	3022.23914
537.499	3136.14275
537.707	2779.06129
537.915	3044.25192
538.122	3260.39064
538.33	3161.17355
538.538	2933.28778
538.745	3064.56684
538.953	3149.33544
539.16	2865.28602
539.368	2635.2627
539.575	2421.94841
539.783	2668.60122
539.99	3338.24559
540.198	2780.25004
540.406	2732.68671
540.613	2692.91566
540.82	2514.54175
541.028	2885.98046
541.235	2960.23655
541.443	3316.1276
541.65	3623.54718
541.858	3003.77827
542.065	2707.87464
542.272	2513.8601
542.48	3330.6483
542.687	2613.65291
542.895	3213.41383
543.102	2767.34275
543.309	2995.30874
543.516	2992.25952
543.724	2930.5755
543.931	2647.17098
544.138	3140.5405
544.346	2753.92379
544.553	2934.98291
544.76	2767.68244
544.967	2678.46394
545.174	2879.19594
545.382	2770.06024
545.589	2961.25333
545.796	3152.04142
546.003	2427.92039
546.21	2924.81164
546.417	3456.02289
546.624	3056.94926
546.832	3007.84337
547.039	3086.23132
547.246	3461.9255
547.453	3026.13409
547.66	2593.56896
547.867	3081.32339
548.074	2907.85691
548.281	2680.50435
548.488	2703.28526
548.695	2669.11139
548.902	2819.80845
549.109	2643.7688
549.316	2363.566
549.523	2427.57914
549.73	2663.32925
549.936	2771.41895
550.143	2495.62373
550.35	2387.47133
550.557	2332.13448
550.764	2412.39216
550.971	2904.80471
551.178	2677.44372
551.384	3060.67348
551.591	3128.69994
551.798	3133.26718
552.005	2657.71676
552.211	3024.61
552.418	2757.49107
552.625	2321.02737
552.832	2914.97829
553.038	2941.76311
553.245	2995.13935
553.452	3028.50485
553.658	2604.29242
553.865	2590.67507
554.072	2768.02213
554.278	2848.14995
554.485	3629.61034
554.691	3403.56105
554.898	2661.2884
555.105	3231.8353
555.311	2810.30257
555.518	3231.8353
555.724	3052.03982
555.931	2396.68969
556.137	2525.44716
556.344	2877.66935
556.55	2905.14385
556.757	2938.71209
556.963	2830.33156
557.17	3039.34182
557.376	3024.77934
557.582	3230.65237
557.789	2559.68628
557.995	2481.30405
558.202	2698.18563
558.408	2820.82688
558.614	2423.996
558.821	2867.66104
559.027	3105.18375
559.233	2952.10193
559.439	3547.0598
559.646	2916.84332
559.852	3249.74666
560.058	3242.31213
560.264	3187.88875
560.471	2874.44647
560.677	3281.3376
560.883	3285.05357
561.089	3342.63489
561.295	2827.61605
561.502	3094.69268
561.708	2762.92663
561.914	3096.89252
562.12	3097.23095
562.326	3258.19435
562.532	3248.05704
562.738	3320.18008
562.944	2706.51485
563.15	3032.56886
563.356	2543.16494
563.562	3076.0767
563.768	3099.76914
563.974	2633.56136
564.18	3110.93643
564.386	2965.82868
564.592	2747.12853
564.798	2684.41497
565.004	3346.17997
565.21	2560.53779
565.416	3140.20222
565.622	3052.03982
565.828	3125.1475
566.034	3574.52636
566.239	3116.51959
566.445	3729.94972
566.651	3677.09554
566.857	4091.18422
567.063	3703.18849
567.268	4030.55813
567.474	4198.28006
567.68	4081.61306
567.886	4592.44738
568.091	5014.12892
568.297	4559.44391
568.503	4831.22903
568.708	5144.26361
568.914	5462.25588
569.12	5460.25019
569.325	5088.40105
569.531	5101.2802
569.737	4172.93844
569.942	4633.31904
570.148	5337.55608
570.353	6232.44609
570.559	5974.71204
570.765	5518.07846
570.97	5854.76746
571.176	6623.27088
571.381	5369.82012
571.587	4419.5075
571.792	4812.98385
571.998	4712.69993
572.203	4943.691
572.408	6448.23667
572.614	7014.10798
572.819	6416.8373
573.025	5906.22138
573.23	5626.36828
573.435	5764.71749
573.641	5952.99586
573.846	5342.23699
574.051	5800.63815
574.257	6373.74648
574.462	6260.00509
574.667	5833.88456
574.873	5732.63841
575.078	6661.68507
575.283	6106.33924
575.488	6756.05125
575.694	7329.99194
575.899	5889.5158
576.104	6335.16492
576.309	6711.12274
576.514	6632.45687
576.719	8316.12215
576.925	9088.98129
577.13	8405.56078
577.335	7668.82223
577.54	7147.73901
577.745	6076.77409
577.95	6454.75036
578.155	5825.36422
578.36	5436.84999
578.565	5853.76509
578.77	7410.01513
578.975	7750.19918
579.18	6898.52278
579.385	7379.2751
579.59	8362.5961
579.795	6854.7619
580	5761.54305
580.205	6086.46215
580.41	8489.15334
580.615	12050.15874
580.82	12627.73667
581.024	10499.79021
581.229	10035.15911
581.434	9463.4968
581.639	7791.47421
581.844	6428.69558
582.049	5891.18637
582.253	6591.03647
582.458	5861.11579
582.663	4830.39212
582.868	4935.32455
583.072	5036.21128
583.277	6317.62774
583.482	7184.99008
583.686	7451.61529
583.891	6943.45347
584.096	7361.39936
584.3	8042.15769
584.505	6636.29828
584.71	7052.69317
584.914	7449.10923
585.119	7136.8812
585.323	6535.58673
585.528	5214.3327
585.733	5709.24672
585.937	6070.59374
586.142	5210.31948
586.346	6782.27365
586.551	6501.34821
586.755	6715.63228
586.959	8418.09935
587.164	7887.89858
587.368	6656.67451
587.573	7568.56916
587.777	10832.23412
587.982	30231.82545
588.186	61131.1603
588.39	30029.0913
588.595	21172.60993
588.799	36781.97251
589.003	18294.04801
589.208	8091.29686
589.412	6765.40444
589.616	6058.56707
589.82	6138.2424
590.025	4948.8781
590.229	4946.53555
590.433	4701.14586
590.637	4954.23245
590.842	5951.49242
591.046	6492.32927
591.25	5581.75078
591.454	4478.17336
591.658	5205.63735
591.862	7391.13668
592.067	10320.42894
592.271	9108.04826
592.475	7330.159
592.679	7815.70503
592.883	6790.29072
593.087	7372.92668
593.291	6287.06279
593.495	5692.538
593.699	5188.58063
593.903	6797.13864
594.107	8385.66646
594.311	8352.0641
594.515	7509.0887
594.719	6717.30248
594.923	6100.82713
595.127	7067.05837
595.33	6198.20578
595.534	4968.78918
595.738	6598.21822
595.942	6304.76711
596.146	5181.22263
596.35	6297.25113
596.553	5791.61634
596.757	6370.23908
596.961	7934.85976
597.165	6375.91773
597.369	4887.46465
597.572	5326.18798
597.776	5177.20913
597.98	7123.18372
598.183	8035.13795
598.387	7273.35972
598.591	5896.36511
598.794	5828.20434
598.998	6148.93236
599.202	6894.68115
599.405	7566.23
599.609	7147.23788
599.812	7732.65346
600.016	7423.21346
600.22	8033.80086
600.423	8036.47504
600.627	7362.73585
600.83	6021.81839
601.034	7596.63936
601.237	8381.48702
601.441	5459.58162
601.644	5756.19659
601.847	7151.58102
602.051	6859.43861
602.254	6265.01579
602.458	7180.31278
602.661	8103.49835
602.864	6803.15147
603.068	6336.83512
603.271	5622.35783
603.475	5435.34566
603.678	5971.03702
603.881	5703.56579
604.084	4739.65764
604.288	5267.67187
604.491	6911.71797
604.694	6733.1694
604.897	5215.16878
605.101	5601.13548
605.304	6214.7414
605.507	5197.10907
605.71	4709.85332
605.913	6324.14156
606.116	6611.2456
606.32	6156.9498
606.523	5730.63343
606.726	5660.79056
606.929	5955.83569
607.132	6174.32082
607.335	6515.8787
607.538	5391.04986
607.741	5064.81612
607.944	4558.77375
608.147	4655.09241
608.35	5115.32972
608.553	4920.26445
608.756	5242.75869
608.959	5607.98685
609.162	6662.01911
609.365	6423.18399
609.568	5947.65028
609.771	4597.97547
609.973	5779.25298
610.176	5815.34021
610.379	4922.43984
610.582	4897.50574
610.785	5749.17932
610.988	5588.101
611.19	4521.24169
611.393	4692.6056
611.596	4302.96862
611.799	4374.91143
612.001	5444.20443
612.204	4453.03264
612.407	4548.05087
612.609	5007.26975
612.812	5570.21999
613.015	5231.05407
613.217	5233.56223
613.42	4598.47801
613.623	4668.99297
613.825	5618.51445
614.028	5744.83527
614.23	4862.86274
614.433	4481.86044
614.636	4979.1626
614.838	5758.86982
615.041	6063.74523
615.243	3823.32235
615.446	3440.67475
615.648	3553.96913
615.85	4136.34656
616.053	3310.72406
616.255	4512.36051
616.458	4095.54984
616.66	3899.82756
616.863	3437.46994
617.065	3835.76757
617.267	4313.53516
617.47	4018.63195
617.672	3765.11872
617.874	3505.93298
618.077	3745.09533
618.279	4209.52329
618.481	4494.93237
618.683	3328.11576
618.886	3349.72494
619.088	5216.17208
619.29	4761.08812
619.492	3634.83117
619.694	3598.7864
619.897	4106.12765
620.099	3350.73777
620.301	2518.29067
620.503	2435.42728
620.705	3291.30287
620.907	3439.83138
621.109	3232.17328
621.311	3771.17567
621.513	4210.0267
621.715	4114.18651
621.917	4235.53128
622.119	4061.62951
622.321	3901.84477
622.523	4101.09067
622.725	3521.10429
622.927	3130.72985
623.129	3315.78988
623.331	3382.80594
623.533	3157.45315
623.735	3715.81235
623.937	4010.56871
624.139	3077.26147
624.341	3049.66966
624.542	2406.41882
624.744	2596.29252
624.946	3321.69972
625.148	3229.46943
625.35	3394.61825
625.551	2849.16803
625.753	2399.25013
625.955	2801.64449
626.156	3197.52479
626.358	3229.9764
626.56	3142.06276
626.762	3509.81027
626.963	3387.02477
627.165	3027.99683
627.366	3409.46629
627.568	3116.51959
627.77	2873.42869
627.971	3389.89348
628.173	3191.77709
628.374	2841.19274
628.576	3053.73276
628.777	3830.89051
628.979	2470.05083
629.18	2430.30903
629.382	2327.00836
629.583	3122.60996
629.785	3046.28361
629.986	2472.097
630.188	2428.9441
630.389	2613.82309
630.591	2910.06121
630.792	2255.88424
630.993	2096.24411
631.195	2252.29175
631.396	2296.4141
631.597	2386.78844
631.799	2310.94389
632	2906.83952
632.201	2491.19176
632.402	2949.72919
632.604	2986.83844
632.805	2527.32136
633.006	2754.26354
633.207	3035.10878
633.409	2993.44534
633.61	2485.90712
633.811	2572.62823
634.012	2905.99169
634.213	2718.41222
634.414	2902.43071
634.615	2673.36269
634.816	3202.9341
635.017	2904.296
635.219	3039.34182
635.42	2965.32032
635.621	2878.51746
635.822	3609.73562
636.023	3068.96783
636.224	2947.35639
636.425	2586.41913
636.626	2365.78614
636.826	2434.74487
637.027	2905.65256
637.228	2519.14267
637.429	2209.33693
637.63	2388.66638
637.831	2057.81216
638.032	2229.70564
638.233	1921.0312
638.433	2124.70872
638.634	2380.64211
638.835	2212.58953
639.036	2437.30388
639.237	1718.83271
639.437	1621.3232
639.638	2026.56739
639.839	2174.7461
640.039	1765.96248
640.24	2351.09767
640.441	1934.10524
640.641	1567.29669
640.842	2081.66354
641.043	1930.83702
641.243	1700.52126
641.444	1812.18659
641.645	2348.87704
641.845	1768.03311
642.046	1964.7138
642.246	1819.59928
642.447	1356.64262
642.647	2039.27336
642.848	2495.45328
643.048	2317.78032
643.249	2043.05027
643.449	1880.92928
643.65	1703.97677
643.85	1562.79167
644.05	2212.58953
644.251	1689.63483
644.451	2003.55206
644.651	1905.02843
644.852	1969.87088
645.052	1768.37821
645.252	1830.45784
645.453	1544.24723
645.653	1700.86682
645.853	1644.85403
646.054	1719.17815
646.254	1668.20051
646.454	1400.83606
646.654	1391.0965
646.854	1684.27713
647.055	1908.81446
647.255	1527.42949
647.455	2455.21427
647.655	2068.62371
647.855	2243.73736
648.055	1986.02663
648.255	1663.87793
648.455	2135.33658
648.655	2084.57995
648.856	2287.86563
649.056	2025.8805
649.256	2169.94979
649.456	2019.01115
649.656	2019.69812
649.856	2130.02288
650.055	2136.53638
650.255	2570.41464
650.455	2663.66939
650.655	2727.07918
650.855	3441.18076
651.055	4351.93929
651.255	4751.04277
651.455	4618.24415
651.655	3668.67739
651.854	3472.21221
652.054	2929.55838
652.254	3437.46994
652.454	4389.16301
652.654	4509.67934
652.853	6752.37678
653.053	8667.05425
653.253	15530.79359
653.452	36502.27235
653.652	62682.13143
653.852	62682.13143
654.051	62682.13143
654.251	62682.13143
654.451	62682.13143
654.65	62682.13143
654.85	62682.13143
655.049	62682.13143
655.249	62682.13143
655.449	62682.13143
655.648	62682.13143
655.848	62682.13143
656.047	62682.13143
656.247	62682.13143
656.446	62682.13143
656.645	62682.13143
656.845	62682.13143
657.044	62682.13143
657.244	62682.13143
657.443	62682.13143
657.643	62682.13143
657.842	62682.13143
658.041	62682.13143
658.241	62682.13143
658.44	62682.13143
658.639	62682.13143
658.839	62682.13143
659.038	62682.13143
659.237	62682.13143
659.436	62682.13143
659.636	62682.13143
659.835	62682.13143
660.034	62682.13143
660.233	62682.13143
660.432	62682.13143
660.631	62682.13143
660.831	62682.13143
661.03	62682.13143
661.229	62682.13143
661.428	62682.13143
661.627	62682.13143
661.826	62682.13143
662.025	62682.13143
662.224	62682.13143
662.423	62682.13143
662.622	62682.13143
662.821	62682.13143
663.02	62682.13143
663.219	62682.13143
663.418	62682.13143
663.617	62682.13143
663.816	62682.13143
664.015	62682.13143
664.214	62682.13143
664.412	62682.13143
664.611	49588.46118
664.81	4611.04141
665.009	4342.04543
665.208	3311.39951
665.406	2490.50989
665.605	2887.3373
665.804	2492.55547
666.003	2618.75814
666.201	1959.38432
666.4	2017.29368
666.599	2114.93627
666.798	1912.084
666.996	1969.35519
667.195	1624.61129
667.394	1630.66771
667.592	2263.23967
667.791	1703.804
667.989	2094.87198
668.188	1844.76011
668.386	2354.68469
668.585	1696.89272
668.783	2004.06743
668.982	1935.99727
669.18	2130.87996
669.379	1675.98018
669.577	1381.52873
669.776	1319.89612
669.974	1947.864
670.173	1592.41285
670.371	1588.25662
670.57	1387.4436
670.768	1664.39666
670.966	1980.69918
671.165	2164.12519
671.363	1704.14954
671.561	1811.15217
671.76	2156.75799
671.958	2365.61536
672.156	1784.9401
672.354	1435.77631
672.553	1536.7927
672.751	1087.33806
672.949	1379.26695
673.147	1770.2762
673.345	1205.79382
673.543	1789.59717
673.742	965.52899
673.94	1305.25831
674.138	1332.2646
674.336	1290.61539
674.534	1179.40376
674.732	1750.77529
674.93	1460.61749
675.128	1016.82809
675.326	1187.79453
675.524	1113.78971
675.722	1613.70781
675.92	1169.08769
676.118	989.43052
676.316	1352.81271
676.514	1254.68358
676.712	989.60621
676.91	1240.54649
677.108	1401.87946
677.305	1743.87051
677.503	1426.5659
677.701	1324.07742
677.899	1138.99842
678.097	1325.8195
678.295	1101.00408
678.492	1074.01779
678.69	1625.64959
678.888	1237.57882
679.085	1934.10524
679.283	1220.46691
679.481	860.24632
679.679	1105.20804
679.876	1107.1347
680.074	1275.96734
680.271	1117.64209
680.469	959.90285
680.667	1461.13849
680.864	1355.42405
681.062	1526.04219
681.259	1381.87669
681.457	787.88211
681.654	1378.91897
681.852	953.74827
682.049	1058.41318
682.247	921.02371
682.444	897.42965
682.642	1284.51266
682.839	820.90583
683.037	1258.34796
683.234	1579.42341
683.431	1182.5505
683.629	816.13964
683.826	1028.06232
684.023	1292.35886
684.221	1669.58365
684.418	1759.23236
684.615	1963.85424
684.813	1956.28955
685.01	1992.9
685.207	1226.05526
685.404	874.70132
685.601	1631.53285
685.799	1718.65999
685.996	1248.05197
686.193	1180.97716
686.39	838.72917
686.587	1283.81515
686.784	1352.29042
686.981	1541.82031
687.179	1309.7896
687.376	816.13964
687.573	1104.85772
687.77	1359.07966
687.967	986.26797
688.164	1160.34316
688.361	807.66479
688.558	1186.74578
688.755	847.54926
688.952	1667.33602
689.148	1200.02793
689.345	1051.924
689.542	1096.62447
689.739	1029.99287
689.936	892.32144
690.133	1332.96131
690.33	928.23972
690.526	1242.11751
690.723	1948.20793
690.92	1535.05892
691.117	973.43929
691.314	866.06428
691.51	748.28261
691.707	980.46925
691.904	973.96659
692.1	1553.08709
692.297	879.63583
692.494	875.23005
692.69	1913.63266
692.887	1595.52978
693.084	1154.04591
693.28	1015.59914
693.477	1024.55198
693.673	992.94415
693.87	1044.20569
694.066	712.17864
694.263	844.37428
694.459	1027.36028
694.656	1043.67938
694.852	1184.823
695.049	995.22783
695.245	1279.97863
695.442	936.50996
695.638	580.705
695.834	843.84509
696.031	1227.27761
696.227	1238.9754
696.423	1694.99194
696.62	1529.51037
696.816	1552.91378
697.012	940.3805
697.209	1204.22138
697.405	1373.873
697.601	1621.66932
697.797	993.99818
697.994	949.35152
698.19	645.70927
698.386	1307.87257
698.582	1339.75362
698.778	807.13505
698.974	663.97948
699.17	784.1716
699.367	1018.05699
699.563	1582.36799
699.759	578.74929
699.955	942.31561
700.151	949.17564
700.347	901.12825
700.543	1141.27341
700.739	1603.8406
700.935	818.96413
701.131	799.01126
701.327	796.00851
701.523	1526.38902
701.718	829.20099
701.914	1177.65546
702.11	1354.72771
702.306	1324.77426
702.502	976.77869
702.698	651.03173
702.894	884.21726
703.089	841.37543
703.285	853.19296
703.481	861.83313
703.677	1063.32318
703.872	842.96309
704.068	815.08039
704.264	641.98302
704.459	325.96414
704.655	553.31419
704.851	645.3544
705.046	456.54436
705.242	365.55611
705.438	429.04433
705.633	693.22626
705.829	749.16703
706.024	1001.55115
706.22	1535.40568
706.415	1239.14997
706.611	1165.41522
706.806	1402.92283
707.002	1023.32329
707.197	1034.55559
707.393	1164.0161
707.588	765.43623
707.784	1209.46259
707.979	710.76201
708.174	720.50014
708.37	721.56231
708.565	1035.08202
708.76	798.30475
708.956	1007.34658
709.151	753.58877
709.346	701.02107
709.542	515.03415
709.737	682.77128
709.932	1092.59479
710.127	1101.00408
710.322	734.30574
710.518	768.08808
710.713	614.64425
710.908	403.1287
711.103	744.92161
711.298	1114.49017
711.493	586.92691
711.688	591.72585
711.883	710.40785
712.078	1379.61492
712.273	1274.57202
712.468	605.94072
712.663	959.72702
712.858	1118.16739
713.053	910.46112
713.248	1064.37524
713.443	856.71982
713.638	583.19391
713.833	640.38593
714.028	856.01447
714.223	1409.53026
714.418	1716.58733
714.613	855.6618
714.807	1566.95016
715.002	825.1419
715.197	869.23732
715.392	210.28407
715.587	549.39929
715.781	828.84804
715.976	581.06057
716.171	1202.29944
716.365	856.19081
716.56	963.94672
716.755	528.39294
716.949	754.11934
717.144	900.07155
717.339	705.27201
717.533	1026.30719
717.728	1257.8245
717.922	571.81445
718.117	421.00392
718.312	1005.59049
718.506	816.84578
718.701	1522.9206
718.895	1555.16682
719.089	1208.5891
719.284	990.13327
719.478	709.34533
719.673	330.98325
719.867	1212.25762
720.062	833.43606
720.256	720.8542
720.45	590.30401
720.645	550.28908
720.839	913.27811
721.033	1052.80098
721.228	528.92717
721.422	938.26935
721.616	616.59778
721.81	898.66256
722.005	949.35152
722.199	1223.61045
722.393	610.91445
722.587	600.96623
722.781	1021.21686
722.975	1216.9738
723.169	960.43034
723.364	1059.11465
723.558	507.72894
723.752	794.41871
723.946	1259.22038
724.14	861.48051
724.334	867.65084
724.528	944.77833
724.722	746.15991
724.916	1305.08401
725.11	893.55452
725.304	985.91655
725.498	1191.81449
725.692	911.16539
725.885	1112.38875
726.079	1506.44202
726.273	826.90678
726.467	708.99114
726.661	636.30412
726.855	1134.09799
727.048	1316.0629
727.242	714.30348
727.436	1037.53861
727.63	812.78526
727.823	1172.4101
728.017	596.34637
728.211	762.43054
728.405	1179.92823
728.598	763.84502
728.792	882.45524
728.986	1142.67333
729.179	1031.57234
729.373	775.15868
729.566	991.8901
729.76	964.82577
729.953	916.62301
730.147	1355.77222
730.34	1188.66847
730.534	2084.4084
730.727	1277.71143
730.921	1290.09234
731.114	1351.24583
731.308	1106.95955
731.501	984.33516
731.695	850.72395
731.888	896.1967
732.081	860.77526
732.275	997.16007
732.468	1013.3167
732.661	1135.6732
732.855	579.46047
733.048	705.44912
733.241	558.11818
733.434	1464.26433
733.628	1272.30452
733.821	1522.40031
734.014	1194.96026
734.207	1398.57528
734.4	775.15868
734.594	1054.90565
734.787	1150.37205
734.98	1127.44644
735.173	1333.30966
735.366	824.96541
735.559	1220.99085
735.752	658.30438
735.945	449.76093
736.138	702.61523
736.331	969.04489
736.524	1349.15657
736.717	920.67168
736.91	996.45745
737.103	997.16007
737.296	826.02435
737.489	975.89993
737.682	354.27511
737.875	508.26353
738.067	1002.4293
738.26	1001.37552
738.453	1147.92262
738.646	1090.31696
738.839	1101.00408
739.031	1049.64375
739.224	833.08315
739.417	1157.19466
739.61	1417.35357
739.802	709.6995
739.995	428.68702
740.188	1326.16791
740.38	846.31458
740.573	813.84457
740.765	774.80519
740.958	176.42541
741.151	1007.69779
741.343	403.1287
741.536	599.18944
741.728	594.39161
741.921	754.2962
742.113	563.81085
742.306	684.36632
742.498	688.26499
742.691	866.94571
742.883	526.07782
743.076	600.07784
743.268	424.22034
743.46	1013.49227
743.653	438.69002
743.845	951.46203
744.037	759.4246
744.23	650.67693
744.422	694.2893
744.614	643.40259
744.807	617.13054
744.999	800.24761
745.191	859.01208
745.383	856.01447
745.575	521.98143
745.768	840.49337
745.96	759.07094
746.152	940.73234
746.344	561.85411
746.536	1160.86789
746.728	1014.19458
746.92	1018.4081
747.112	681.70788
747.304	835.20052
747.496	694.46647
747.688	578.39369
747.88	210.28407
748.072	1182.37569
748.264	616.95295
748.456	695.88379
748.648	634.70676
748.84	709.6995
749.032	569.32466
749.224	1033.5027
749.416	960.95782
749.608	1159.99334
749.799	940.02865
749.991	1072.61539
750.183	1111.51312
750.375	608.07241
750.567	734.4827
750.758	306.41724
750.95	808.19453
751.142	680.99892
751.333	579.63826
751.525	868.88477
751.717	922.25582
751.908	1334.35469
752.1	578.74929
752.292	733.06701
752.483	722.09338
752.675	689.68257
752.866	964.29834
753.058	1634.99325
753.249	1159.64352
753.441	1011.56088
753.632	491.68712
753.824	544.77197
754.015	526.61209
754.207	1282.24571
754.398	1131.29748
754.589	605.94072
754.781	668.76708
754.972	771.97709
755.164	794.41871
755.355	815.78656
755.546	913.45417
755.738	675.85856
755.929	918.73541
756.12	1438.03517
756.311	1481.45259
756.503	985.74085
756.694	1124.29531
756.885	1132.52273
757.076	1854.06312
757.267	1787.52742
757.458	1303.86396
757.65	1233.38881
757.841	1111.338
758.032	1580.63591
758.223	1325.47109
758.414	1397.01006
758.605	1274.04876
758.796	844.37428
758.987	1472.25161
759.178	951.81377
759.369	587.63791
759.56	869.76613
759.751	772.8609
759.942	1034.38011
760.133	664.6888
760.324	968.16594
760.514	934.75049
760.705	1330.52278
760.896	747.75195
761.087	1007.17098
761.278	644.99954
761.468	495.43095
761.659	1013.84343
761.85	1066.12862
762.041	378.08555
762.231	1134.62307
762.422	627.07381
762.613	1260.7907
762.803	784.3483
762.994	1615.2656
763.185	604.34186
763.375	960.78199
763.566	705.0949
763.757	783.11138
763.947	815.25694
764.138	1188.66847
764.328	1385.35609
764.519	1473.11971
764.709	1004.53679
764.9	930.52742
765.09	839.08202
765.281	822.31791
765.471	507.90714
765.661	600.96623
765.852	662.91547
766.042	745.80611
766.232	215.50332
766.423	517.52822
766.613	679.04922
766.803	689.32818
766.994	869.23732
767.184	853.72201
767.374	1314.66891
767.564	1379.26695
767.755	954.27585
767.945	600.4332
768.135	799.01126
768.325	1399.27092
768.515	1105.03288
768.706	855.30912
768.896	1046.48626
769.086	1166.63941
769.276	994.87651
769.466	686.31571
769.656	825.49488
769.846	900.24767
770.036	1066.12862
770.226	976.07568
770.416	808.37111
770.606	1157.89435
770.796	1391.61831
770.986	972.56045
771.176	642.69282
771.366	828.31862
771.555	987.49788
771.745	439.0472
771.935	878.57849
772.125	754.47305
772.315	646.5964
772.504	1017.88144
772.694	477.42077
772.884	1131.12244
773.074	339.0479
773.263	839.7877
773.453	712.17864
773.643	1282.94325
773.832	1016.82809
774.022	998.56527
774.212	660.43266
774.401	499.35258
774.591	156.41515
774.781	289.90875
774.97	756.94892
775.16	467.78726
775.349	348.18517
775.539	572.34796
775.728	343.34814
775.918	892.84991
776.107	1717.79639
776.297	2968.20099
776.486	5576.06897
776.675	6662.18612
776.865	4861.85854
777.054	2241.34192
777.243	1321.46415
777.433	1193.9117
777.622	1134.62307
777.811	944.95423
778.001	1034.90655
778.19	802.54358
778.379	486.15969
778.568	944.42652
778.758	632.93181
778.947	851.60576
779.136	952.86896
779.325	947.94444
779.514	375.22214
779.703	1136.7233
779.892	435.29651
780.082	576.26003
780.271	384.16938
780.46	975.89993
780.649	1029.46637
780.838	816.84578
781.027	457.61529
781.216	464.39698
781.405	340.12302
781.594	968.51752
781.783	1079.80216
781.971	1251.19339
782.16	700.48966
782.349	1390.40073
782.538	351.94675
782.727	1058.58855
782.916	534.09096
783.105	1160.16825
783.293	595.99097
783.482	1340.62435
783.671	926.12787
783.86	694.8208
784.048	372.71644
784.237	201.46313
784.426	512.53988
784.614	655.82122
784.803	615.70982
784.992	136.93186
785.18	460.47092
785.369	836.96489
785.557	564.16661
785.746	856.71982
785.935	777.27958
786.123	476.70728
786.312	181.83113
786.5	809.7837
786.689	672.84486
786.877	664.86612
787.065	863.06727
787.254	27.53165
787.442	291.88308
787.631	746.15991
787.819	778.16325
788.007	978.00892
788.196	1008.927
788.384	1081.55482
788.572	1171.88553
788.761	360.3638
788.949	466.00295
789.137	691.98601
789.325	523.76254
789.513	427.9724
789.702	687.55617
789.89	901.48048
790.078	402.41347
790.266	306.05846
790.454	608.78295
790.642	495.43095
790.83	1052.62558
791.018	637.01404
791.207	515.56861
791.395	915.56676
791.583	395.4391
791.771	1014.19458
791.959	516.81565
792.146	436.54679
792.334	358.75221
792.522	593.32533
792.71	637.54647
792.898	714.6576
793.086	1004.53679
793.274	598.83407
793.462	1226.75375
793.65	1302.29527
793.837	426.72176
794.025	1046.13541
794.213	330.26629
794.401	1102.23028
794.588	520.20022
794.776	332.77559
794.964	167.05303
795.151	803.25
795.339	703.50085
795.527	477.42077
795.714	67.00288
795.902	521.44708
796.089	427.07909
796.277	141.08223
796.465	948.4721
796.652	707.92858
796.84	376.65388
797.027	817.37538
797.215	426.5431
797.402	950.93441
797.59	950.58266
797.777	420.28911
797.964	200.92299
798.152	432.2599
798.339	941.61194
798.526	271.77447
798.714	324.35067
798.901	550.46704
799.088	793.71211
799.276	481.70136
799.463	567.01253
799.65	359.11035
799.837	602.20992
800.025	289.01128
800.212	735.01357
800.399	646.06412
800.586	423.32692
800.773	402.59228
800.96	239.068
801.148	922.60784
801.335	713.77228
801.522	950.58266
801.709	210.10408
801.896	711.11618
802.083	489.72589
802.27	297.98473
802.457	454.04538
802.644	449.22534
802.831	472.96118
803.018	421.36132
803.204	374.50625
803.391	537.29564
803.578	322.9164
803.765	426.72176
803.952	920.49566
804.139	401.69822
804.326	615.53223
804.512	534.80314
804.699	871.52877
804.886	379.51715
805.073	315.20599
805.259	576.08222
805.446	1624.26518
805.633	773.92143
805.819	1044.90741
806.006	960.95782
806.192	630.26921
806.379	333.31327
806.566	293.67782
806.752	800.95408
806.939	439.2258
807.125	142.70612
807.312	597.41255
807.498	690.21415
807.685	823.55344
807.871	449.0468
808.058	767.20415
808.244	699.95824
808.43	760.48555
808.617	736.42918
808.803	665.57542
808.99	419.9317
809.176	524.83115
809.362	418.32331
809.549	525.89973
809.735	501.31321
809.921	160.02167
810.107	699.24968
810.293	495.96575
810.48	797.4216
810.666	689.50537
810.852	703.50085
811.038	410.45882
811.224	462.79092
811.41	596.34637
811.597	889.5028
811.783	75.86689
811.969	489.36929
812.155	24.08874
812.341	510.75814
812.527	545.66189
812.713	538.3638
812.899	326.1434
813.085	545.48391
813.271	721.03123
813.456	829.02452
813.642	181.83113
813.828	416.71483
814.014	891.6168
814.2	555.62731
814.386	526.61209
814.572	106.23577
814.757	635.41671
814.943	1178.87928
815.129	610.55921
815.315	626.71874
815.5	492.0437
815.686	837.31775
815.872	103.88701
816.057	280.03506
816.243	938.62121
816.429	440.47592
816.614	473.85315
816.8	362.15436
816.985	457.4368
817.171	579.46047
817.356	753.23505
817.542	662.91547
817.727	763.4914
817.913	192.45933
818.098	402.59228
818.284	288.47279
818.469	440.11875
818.655	479.20442
818.84	812.07903
819.025	184.5336
819.211	817.90497
819.396	983.45658
819.581	232.41431
819.767	346.39377
819.952	651.91873
820.137	886.68395
820.322	808.72426
820.508	1319.02496
820.693	638.25636
820.878	477.2424
821.063	631.8668
821.248	830.7892
821.433	205.42389
821.618	690.9229
821.804	364.48192
821.989	397.76407
822.174	625.47599
822.359	1083.83317
822.544	-35.05437
822.729	721.38528
822.914	72.79195
823.099	412.42513
823.284	330.08705
823.469	415.46373
823.653	557.58444
823.838	610.38159
824.023	445.833
824.208	311.61907
824.393	753.94249
824.578	587.28241
824.762	-23.79605
824.947	420.46782
825.132	504.34302
825.317	475.99377
825.501	583.54945
825.686	456.36587
825.871	313.05389
826.056	701.02107
826.24	725.81065
826.425	838.02347
826.609	122.12979
826.794	253.98822
826.979	552.60243
827.163	500.7785
827.348	195.34086
827.532	233.85308
827.717	417.78716
827.901	557.58444
828.086	594.03619
828.27	361.79626
828.455	652.09612
828.639	791.94555
828.823	612.6906
829.008	151.18487
829.192	256.32441
829.376	549.93317
829.561	237.98913
829.745	320.04765
829.929	-2.56367
830.114	639.49863
830.298	1054.90565
830.482	343.34814
830.666	710.9391
830.85	364.12384
831.035	479.56114
831.219	32.06113
831.403	109.84886
831.587	103.70632
831.771	800.77746
831.955	563.27721
832.139	332.05867
832.323	556.87277
832.507	54.69699
832.691	353.73781
832.875	-43.0471
833.059	213.70369
833.243	-18.53172
833.427	339.40628
833.611	354.09601
833.795	189.03713
833.979	621.39231
834.163	227.55793
834.346	756.94892
834.53	433.86755
834.714	668.94439
834.898	407.95605
835.082	334.56781
835.265	677.09941
835.449	223.78017
835.633	46.55028
835.816	470.64195
836	124.1159
836.184	511.64902
836.367	823.20043
836.551	613.04582
836.735	775.86566
836.918	-32.33014
837.102	427.79374
837.285	370.38952
837.469	437.79702
837.652	730.94336
837.836	280.21461
838.019	260.27754
838.203	445.65445
838.386	191.91901
838.569	165.25028
838.753	1026.65823
838.936	134.58572
839.12	323.63354
839.303	541.56805
839.486	546.01786
839.669	200.92299
839.853	402.23466
840.036	355.52877
840.219	308.0317
840.402	9.40604
840.586	512.36171
840.769	541.74605
840.952	56.32603
841.135	773.39117
841.318	217.84268
841.501	243.74264
841.684	6.14211
841.868	747.04438
842.051	378.98031
842.234	631.68929
842.417	159.84135
842.6	508.79811
842.783	497.92659
842.966	469.74988
843.149	1276.66499
843.331	676.21309
843.514	2120.76564
843.697	2849.16803
843.88	2764.96487
844.063	1676.67164
844.246	1013.14112
844.429	620.32692
844.611	605.58543
844.794	690.56853
844.977	613.93384
845.16	667.17129
845.342	626.89628
845.525	482.77142
845.708	30.4306
845.89	410.10129
846.073	87.80157
846.256	512.53988
846.438	276.80294
846.621	1074.71897
846.803	381.84336
846.986	157.49716
847.168	315.38533
847.351	739.26023
847.533	523.94064
847.716	695.70662
847.898	775.15868
848.081	6.14211
848.263	342.63148
848.446	182.91215
848.628	672.66758
848.81	206.504
848.993	221.44131
849.175	137.11232
849.357	361.79626
849.539	418.85945
849.722	156.77583
849.904	154.79207
850.086	499.88731
850.268	954.09999
850.451	1002.95619
850.633	593.14762
850.815	134.04428
850.997	1016.12583
851.179	181.47078
851.361	475.10186
851.543	333.49249
851.725	632.93181
851.907	323.45426
852.089	731.47428
852.271	408.67115
852.453	1026.13168
852.635	620.85962
852.817	309.28733
852.999	342.98981
853.181	262.61323
853.363	250.3937
853.545	467.60883
853.727	339.40628
853.908	370.56852
854.09	587.63791
854.272	1015.7747
854.454	384.3483
854.636	690.74572
854.817	179.84916
854.999	630.62424
855.181	497.03531
855.362	422.79086
855.544	181.11043
855.726	696.06095
855.907	270.87644
856.089	276.98251
856.27	395.61795
856.452	306.41724
856.634	703.85509
856.815	538.18577
856.997	673.55399
857.178	282.90775
857.36	-5.82907
857.541	97.74313
857.722	242.84373
857.904	411.53137
858.085	284.70304
858.267	743.50635
858.448	349.25995
858.629	480.63127
858.811	51.07654
858.992	546.90774
859.173	500.06555
859.354	503.98659
859.536	802.36697
859.717	36.04643
859.898	360.90098
860.079	423.86297
860.26	435.11789
860.441	747.57506
860.623	369.4945
860.804	248.41652
860.985	584.43829
861.166	267.46366
861.347	-126.02666
861.528	15.57013
861.709	617.48571
861.89	380.41187
862.071	630.97926
862.252	416.17865
862.433	120.32412
862.614	1279.28104
862.794	152.08672
862.975	563.81085
863.156	1018.4081
863.337	394.18711
863.518	560.96464
863.699	357.14053
863.879	717.13638
864.06	342.45231
864.241	485.4464
864.422	390.96749
864.602	189.5775
864.783	852.13484
864.964	136.20999
865.144	388.4631
865.325	319.33041
865.506	550.11113
865.686	255.24619
865.867	539.78795
866.047	377.19076
866.228	578.39369
866.408	141.4431
866.589	473.31797
866.769	662.02877
866.95	410.63758
867.13	260.27754
867.31	387.74753
867.491	535.69334
867.671	54.69699
867.852	135.84905
868.032	682.41682
868.212	450.47505
868.393	648.90285
868.573	181.11043
868.753	296.36971
868.933	321.12346
869.113	386.49522
869.294	438.33282
869.474	528.03678
869.654	251.65183
869.834	396.51218
870.014	420.11041
870.194	70.44029
870.374	536.58352
870.555	272.31328
870.735	322.55782
870.915	486.69464
871.095	359.46849
871.275	556.69485
871.455	657.41756
871.634	239.78723
871.814	701.37533
871.994	374.50625
872.174	440.11875
872.354	934.04668
872.534	173.36171
872.714	349.08082
872.894	202.54339
873.073	459.40009
873.253	620.50449
873.433	126.46293
873.613	107.31975
873.792	640.38593
873.972	295.6519
874.152	223.78017
874.331	555.62731
874.511	847.02012
874.691	190.83834
874.87	260.81657
875.05	251.83156
875.229	203.26355
875.409	508.9763
875.588	225.57916
875.768	505.05588
875.947	982.22653
876.127	761.19283
876.306	522.33766
876.486	306.59663
876.665	449.0468
876.844	420.82522
877.024	919.79157
877.203	512.36171
877.382	278.05992
877.562	180.75007
877.741	379.3382
877.92	568.79111
878.1	648.37061
878.279	228.27744
878.458	201.28308
878.637	298.52304
878.816	653.51526
878.996	398.65824
879.175	432.08126
879.354	301.03507
879.533	673.37671
879.712	399.37356
879.891	458.68618
880.07	731.47428
880.249	626.0086
880.428	405.27428
880.607	622.28011
880.786	51.25757
880.965	723.68655
881.144	518.59705
881.323	102.98358
881.502	309.82544
881.68	350.51382
881.859	194.8006
882.038	556.33901
882.217	396.15449
882.396	-19.07626
882.574	218.02262
882.753	358.215
882.932	313.77127
883.111	671.42656
883.289	327.57752
883.468	396.15449
883.647	356.06603
883.825	537.82972
884.004	555.80524
884.182	413.31887
884.361	318.61317
884.539	260.63689
884.718	655.46647
884.896	26.80686
885.075	267.28403
885.253	696.76958
885.432	350.87206
885.61	143.06697
885.789	238.34876
885.967	219.28218
886.145	611.26969
886.324	466.35982
886.502	260.45722
886.68	590.65948
886.859	185.61451
887.037	670.71739
887.215	360.54286
887.393	769.85587
887.572	115.2676
887.75	638.6113
887.928	612.51299
888.106	586.5714
888.284	691.80883
888.462	574.83752
888.64	351.05118
888.819	495.60922
888.997	499.35258
889.175	235.29177
889.353	87.98236
889.531	449.40387
889.709	327.93603
889.887	287.39577
890.065	699.7811
890.242	592.9699
890.42	728.4656
890.598	316.28198
890.776	594.92474
890.954	274.4684
891.132	148.29878
891.309	221.80114
891.487	559.36354
891.665	360.00568
891.843	330.08705
892.02	140.90179
892.198	505.59051
892.376	495.78748
892.553	694.11213
892.731	911.86964
892.909	537.11761
893.086	707.75148
893.264	366.0932
893.441	329.37006
893.619	338.51032
893.797	348.9017
893.974	450.11799
894.151	517.35008
894.329	263.69117
894.506	141.4431
894.684	285.06209
894.861	570.74742
895.039	181.83113
895.216	253.44907
895.393	443.69028
895.571	-36.50741
895.748	250.03422
895.925	895.316
896.102	603.80889
896.28	222.16098
896.457	132.05889
896.634	262.07424
896.811	59.40285
896.988	242.48416
897.166	438.51142
897.343	272.67248
897.52	552.06859
897.697	233.31355
897.874	756.77207
898.051	702.96948
898.228	298.70248
898.405	162.90654
898.582	74.78166
898.759	247.87726
898.936	612.33538
899.113	650.67693
899.29	616.42019
899.467	722.80146
899.643	640.03101
899.82	690.56853
899.997	688.97379
900.174	-155.20636
900.351	618.90635
900.527	347.8269
900.704	444.5831
900.881	829.7304
901.058	118.33774
901.234	533.37876
901.411	666.46203
901.588	361.43815
901.764	579.99384
901.941	667.17129
902.117	457.97226
902.294	358.39407
902.471	774.80519
902.647	214.78348
902.824	258.30105
903	503.98659
903.176	422.43348
903.353	551.89065
903.529	208.12409
903.706	546.37381
903.882	265.48766
904.058	140.54091
904.235	7.41146
904.411	91.23634
904.587	483.48477
904.764	471.53398
904.94	243.74264
905.116	380.76975
905.292	491.50883
905.469	437.61842
905.645	291.70361
905.821	660.43266
905.997	251.29237
906.173	196.0612
906.349	264.94873
906.525	426.5431
906.702	322.55782
906.878	219.28218
907.054	224.67968
907.23	472.78279
907.406	295.6519
907.582	773.03766
907.757	404.38031
907.933	293.85729
908.109	490.26078
908.285	482.41474
908.461	502.56081
908.637	84.54718
908.813	255.24619
908.988	402.23466
909.164	541.39004
909.34	533.73486
909.516	190.83834
909.691	127.00452
909.867	584.61605
910.043	437.61842
910.219	512.89622
910.394	747.75195
910.57	486.15969
910.745	779.0469
910.921	632.75431
911.097	41.47997
911.272	-29.60619
911.448	793.18215
911.623	127.72663
911.799	64.83166
911.974	24.08874
912.149	291.16516
912.325	388.28421
912.5	463.32628
912.676	222.52081
912.851	156.23482
913.026	569.50251
913.202	89.79017
913.377	138.01462
913.552	117.43479
913.727	878.40227
913.903	377.19076
914.078	189.93775
914.253	562.20989
914.428	395.61795
914.603	-165.79235
914.779	150.10262
914.954	337.07675
915.129	581.06057
915.304	552.78037
915.479	314.48864
915.654	398.83707
915.829	514.67784
916.004	2.69642
916.179	618.19604
916.354	161.28384
916.529	627.6064
916.704	369.67351
916.879	558.29609
917.053	729.35053
917.228	163.44742
917.403	495.43095
917.578	726.87266
917.753	410.45882
917.927	103.88701
918.102	246.4392
918.277	130.61488
918.452	411.88888
918.626	194.98069
918.801	728.11162
918.976	377.36972
919.15	303.90568
919.325	561.32043
919.499	460.64939
919.674	577.86029
919.849	354.8124
920.023	664.6888
920.198	499.53082
920.372	327.03973
920.547	505.4123
920.721	15.57013
920.895	521.80331
921.07	274.10923
921.244	636.30412
921.419	646.06412
921.593	302.82924
921.767	468.50096
921.942	569.32466
922.116	-9.63922
922.29	304.44389
922.464	373.61136
922.639	170.47792
922.813	162.90654
922.987	526.96827
923.161	82.19654
923.335	452.97432
923.509	375.22214
923.683	485.26808
923.858	423.68429
924.032	748.45949
924.206	594.2139
924.38	-80.50032
924.554	239.068
924.728	237.09004
924.902	929.82353
925.075	480.45292
925.249	323.45426
925.423	727.04966
925.597	461.54171
925.771	327.03973
925.945	286.67773
926.119	956.03438
926.292	504.34302
926.466	462.07709
926.64	417.251
926.814	640.03101
926.987	-48.6798
927.161	166.33194
927.335	-17.26118
927.508	627.6064
927.682	-144.98963
927.856	237.26986
928.029	614.64425
928.203	603.09825
928.376	541.74605
928.55	171.1989
928.723	4.69135
928.897	384.70613
929.07	335.6431
929.244	691.63165
929.417	-100.70401
929.59	421.00392
929.764	266.20622
929.937	692.51755
930.111	784.87839
930.284	40.39335
930.457	-9.82067
930.63	262.61323
930.804	367.34636
930.977	361.79626
931.15	333.13404
931.323	865.18283
931.497	198.76229
931.67	451.36767
931.843	617.13054
932.016	-54.13197
932.189	364.12384
932.362	576.43784
932.535	677.9857
932.708	535.87138
932.881	228.09757
933.054	568.61325
933.227	624.94336
933.4	48.36088
933.573	389.35755
933.746	193.35984
933.919	557.76235
934.092	367.34636
934.264	277.52122
934.437	319.68903
934.61	117.79598
934.783	262.07424
934.956	141.08223
935.128	413.14012
935.301	660.9647
935.474	237.6295
935.646	-36.14415
935.819	331.7002
935.992	379.3382
936.164	28.07523
936.337	164.70944
936.51	310.72227
936.682	339.58546
936.855	109.30693
937.027	845.43264
937.2	470.46354
937.372	106.5971
937.545	460.64939
937.717	320.40625
937.889	321.12346
938.062	593.32533
938.234	631.33428
938.406	194.98069
938.579	527.68061
938.751	505.4123
938.923	565.41173
939.096	779.7538
939.268	468.67938
939.44	391.86187
939.612	626.36367
939.784	569.32466
939.957	462.96938
940.129	471.17717
940.301	455.65189
940.473	360.00568
940.645	680.82168
940.817	605.94072
940.989	371.6425
941.161	219.46212
941.333	596.34637
941.505	239.96703
941.677	497.39183
941.849	74.78166
942.021	325.24705
942.193	125.92133
942.365	16.29523
942.537	454.04538
942.708	597.41255
942.88	507.19435
943.052	86.71681
943.224	100.63454
943.395	308.0317
943.567	259.01979
943.739	432.97442
943.911	73.15373
944.082	241.04583
944.254	832.9067
944.425	-81.59201
944.597	258.48073
944.769	550.28908
944.94	444.04741
945.112	872.93883
945.283	883.33626
945.455	200.02272
945.626	401.51941
945.798	284.34399
945.969	378.98031
946.14	559.36354
946.312	488.83438
946.483	267.28403
946.655	339.76465
946.826	426.72176
946.997	640.38593
947.168	22.45773
947.34	150.10262
947.511	645.88669
947.682	290.98568
947.853	215.86324
948.025	538.71984
948.196	149.74186
948.367	296.90806
948.538	106.95843
948.709	478.66934
948.88	218.3825
949.051	458.15074
949.222	226.47862
949.393	537.82972
949.564	370.92652
949.735	180.56989
949.906	130.07335
950.077	151.18487
950.248	560.96464
950.419	189.39738
950.59	115.62881
950.761	65.9173
950.931	655.82122
951.102	549.22133
951.273	458.5077
951.444	475.99377
951.614	608.96058
951.785	255.6056
951.956	437.26122
952.126	651.74133
952.297	994.87651
952.468	165.43056
952.638	174.98371
952.809	332.05867
952.98	217.84268
953.15	221.62123
953.321	46.91241
953.491	42.38545
953.662	390.96749
953.832	238.88819
954.002	149.3811
954.173	-277.03544
954.343	391.86187
954.514	-24.15915
954.684	105.87444
954.854	467.96569
955.025	322.9164
955.195	342.81065
955.365	360.54286
955.535	142.70612
955.706	617.48571
955.876	484.91142
956.046	623.16789
956.216	521.98143
956.386	467.96569
956.557	449.22534
956.727	64.28883
956.897	406.16823
957.067	267.1044
957.237	297.62584
957.407	520.91272
957.577	456.90134
957.747	228.09757
957.917	218.92231
958.087	61.75547
958.257	413.8551
958.427	341.73562
958.596	-117.2793
958.766	629.55915
958.936	-245.88055
959.106	682.77128
959.276	185.61451
959.445	141.9844
959.615	450.47505
959.785	583.01613
959.955	851.07668
960.124	495.60922
960.294	584.79382
960.464	242.84373
960.633	51.4386
960.803	319.1511
960.972	324.52994
961.142	34.235
961.311	246.97848
961.481	361.25909
961.65	388.82089
961.82	442.61886
961.989	850.19486
962.159	459.22161
962.328	802.54358
962.498	711.11618
962.667	-146.99616
962.836	273.57045
963.006	449.76093
963.175	284.34399
963.344	553.848
963.513	199.84266
963.683	-201.41608
963.852	274.82757
964.021	238.70838
964.19	110.93269
964.359	146.49482
964.528	414.39132
964.698	32.60461
964.867	339.22709
965.036	415.82119
965.205	780.6374
965.374	479.91785
965.543	563.27721
965.712	345.67718
965.881	261.71491
966.05	220.90154
966.219	342.45231
966.387	432.79579
966.556	485.98137
966.725	332.77559
966.894	565.5896
967.063	297.62584
967.232	503.98659
967.4	74.23902
967.569	268.00255
967.738	838.55275
967.906	180.02934
968.075	536.04941
968.244	69.53575
968.412	53.42989
968.581	537.82972
968.75	218.3825
968.918	279.4964
969.087	189.5775
969.255	467.78726
969.424	417.07228
969.592	619.08392
969.761	328.65306
969.929	464.93231
970.098	469.39305
970.266	-126.93801
970.434	236.37074
970.603	474.03154
970.771	514.67784
970.939	386.85303
971.108	721.91636
971.276	122.49092
971.444	466.89512
971.612	-205.25553
971.781	248.95576
971.949	1163.66631
972.117	368.59946
972.285	716.07407
972.453	-46.86267
972.621	146.67522
972.789	215.32336
972.957	793.0055
973.125	105.15175
973.293	311.79842
973.461	370.74752
973.629	844.90347
973.797	138.01462
973.965	436.36818
974.133	183.6328
974.301	317.17861
974.469	28.79998
974.637	332.2379
974.805	750.58205
974.972	518.59705
975.14	673.55399
975.308	337.25595
975.476	41.47997
975.643	584.61605
975.811	81.83488
975.979	964.47415
976.146	355.34968
976.314	657.24019
976.482	385.60069
976.649	159.12008
976.817	474.03154
976.984	583.19391
977.152	180.02934
977.319	758.00994
977.487	729.17355
977.654	527.50253
977.822	-13.44993
977.989	374.50625
978.156	250.21396
978.324	397.9429
978.491	171.1989
978.658	-64.31243
978.826	418.14459
978.993	347.8269
979.16	271.41526
979.328	305.87907
979.495	557.94026
979.662	59.40285
979.829	166.15167
979.996	676.56762
980.163	652.09612
980.33	19.37666
980.498	306.41724
980.665	551.89065
980.832	-68.6767
980.999	467.4304
981.166	213.34375
981.333	656.53071
981.5	432.61716
981.667	1223.08654
981.833	-31.60373
982	689.15098
982.167	130.25386
982.334	288.47279
982.501	282.18961
982.668	401.16178
982.834	-95.42403
983.001	674.26311
983.168	730.05847
983.335	178.58783
983.501	309.82544
983.668	252.19101
983.835	241.04583
984.001	607.36187
984.168	67.90751
984.334	620.68206
984.501	294.03675
984.668	205.06385
984.834	21.00786
985.001	-61.76694
985.167	639.85355
985.334	-59.03991
985.5	146.67522
985.666	48.36088
985.833	-119.8303
985.999	243.38308
986.165	342.98981
986.332	731.82823
986.498	339.22709
986.664	388.82089
986.831	398.12174
986.997	307.13479
987.163	3.42186
987.329	324.35067
987.495	-85.41327
987.662	623.70054
987.828	4.8727
987.994	558.65191
988.16	573.94841
988.326	289.19078
988.492	160.02167
988.658	537.6517
988.824	423.14824
988.99	167.77409
989.156	76.77121
989.322	936.86185
989.488	428.50837
989.654	221.08146
989.82	209.56409
989.985	734.30574
990.151	467.78726
990.317	917.32716
990.483	-45.95415
990.648	555.80524
990.814	362.15436
990.98	454.93789
991.146	410.10129
991.311	644.8221
991.477	467.96569
991.643	63.74599
991.808	67.54566
991.974	-135.50636
992.139	327.39826
992.305	358.93128
992.47	145.7732
992.636	446.01156
992.801	580.52721
992.967	351.94675
993.132	268.3618
993.298	1030.87036
993.463	155.87414
993.628	361.97531
993.794	185.61451
993.959	673.19943
994.124	-62.13056
994.29	400.98296
994.455	623.52299
994.62	382.02229
994.785	673.19943
994.95	233.31355
995.116	564.34449
995.281	325.42632
995.446	277.70078
995.611	-121.28813
995.776	165.43056
995.941	584.26052
996.106	151.72598
996.271	403.66511
996.436	470.99876
996.601	634.88424
996.766	230.43588
996.931	550.82295
997.096	346.21462
997.261	187.59608
997.425	461.18478
997.59	200.74293
997.755	314.3093
997.92	310.5429
998.085	265.12837
998.249	180.56989
998.414	-81.04616
998.579	-39.41374
998.744	281.11235
998.908	603.63123
999.073	697.12389
999.237	650.67693
999.402	119.06008
999.567	351.94675
999.731	317.8959
999.896	-30.69574
1000.06	673.90855
1000.225	439.0472
1000.389	377.0118
1000.553	497.92659
1000.718	558.474
1000.882	-167.61797
1001.047	291.52412
1001.211	168.31488
1001.375	751.46641
1001.54	150.64375
1001.704	162.00505
1001.868	760.1319
1002.032	815.9631
1002.197	463.14783
1002.361	188.49674
1002.525	424.04166
1002.689	459.93551
1002.853	179.66897
1003.017	86.71681
1003.181	196.24128
1003.345	302.47041
1003.509	617.84087
1003.673	499.35258
1003.837	662.73813
1004.001	328.83231
1004.165	370.03152
1004.329	622.63522
1004.493	457.79377
1004.657	396.69102
1004.821	122.49092
1004.985	451.72471
1005.149	315.38533
1005.312	412.42513
1005.476	336.35993
1005.64	979.94205
1005.804	334.56781
1005.967	581.06057
1006.131	594.2139
1006.295	536.58352
1006.458	472.06919
1006.622	373.25339
1006.785	369.13649
1006.949	694.8208
1007.113	303.36746
1007.276	312.87454
1007.44	650.67693
1007.603	92.68242
1007.767	374.8642
1007.93	171.01865
1008.093	232.41431
1008.257	305.69968
1008.42	-67.04001
1008.584	473.67476
1008.747	360.90098
1008.91	413.8551
1009.073	55.60203
1009.237	297.62584
1009.4	532.8446
1009.563	-169.62631
1009.726	355.70786
1009.889	877.69735
1010.053	493.1134
1010.216	275.18674
1010.379	569.50251
1010.542	868.17967
1010.705	600.07784
1010.868	621.56987
1011.031	549.04337
1011.194	296.90806
1011.357	448.86827
1011.52	108.22303
1011.683	147.57721
1011.846	320.58556
1012.009	503.63015
1012.171	329.37006
1012.334	432.43853
1012.497	627.42887
1012.66	260.63689
1012.823	308.0317
1012.985	774.98194
1013.148	529.28332
1013.311	388.82089
1013.473	435.83235
1013.636	111.65522
1013.799	636.12664
1013.961	611.44731
1014.124	356.06603
1014.286	489.01268
1014.449	-13.08698
1014.612	679.93547
1014.774	164.16858
1014.936	265.48766
1015.099	-31.60373
1015.261	68.8121
1015.424	367.16734
1015.586	390.96749
1015.748	289.37027
1015.911	21.55157
1016.073	1233.38881
1016.235	604.16421
1016.398	489.90419
1016.56	712.17864
1016.722	-55.22255
1016.884	138.19508
1017.047	473.13958
1017.209	500.60026
1017.371	5.77943
1017.533	203.26355
1017.695	702.26098
1017.857	577.32688
1018.019	683.30297
1018.181	584.61605
1018.343	315.38533
1018.505	410.9951
1018.667	-186.61235
1018.829	171.1989
1018.991	454.04538
1019.153	426.5431
1019.315	-186.42964
1019.477	221.08146
1019.638	98.46601
1019.8	55.78303
1019.962	528.39294
1020.124	211.54398
1020.285	314.84732
1020.447	425.82842
1020.609	188.857
1020.77	200.56288
1020.932	900.07155
1021.094	236.01109
1021.255	150.64375
1021.417	751.11267
1021.578	32.42345
1021.74	363.9448
1021.901	302.291
1022.063	371.6425
1022.224	550.82295
1022.386	486.15969
1022.547	452.79581
1022.709	471.53398
1022.87	626.71874
1023.031	370.56852
1023.193	152.98853
1023.354	499.70907
1023.515	413.8551
1023.676	514.67784
1023.838	439.2258
1023.999	333.31327
1024.16	470.28512
1024.321	609.49346
1024.482	513.9652
1024.644	936.6859
1024.805	538.54182
1024.966	338.33113
1025.127	90.69403
1025.288	332.41713
1025.449	767.73451
1025.61	395.97564
1025.771	563.63297
1025.932	691.98601
1026.093	546.55179
1026.253	327.93603
1026.414	-240.20365
1026.575	155.87414
1026.736	46.55028
1026.897	222.70072
1027.058	513.60888
1027.218	353.55871
1027.379	-93.42157
1027.54	522.69388
1027.7	362.6915
1027.861	568.25755
1028.022	379.3382
1028.182	343.5273
1028.343	390.60974
1028.504	118.15715
1028.664	240.50643
1028.825	459.57856
1028.985	448.51119
1029.146	144.69074
1029.306	80.93073
1029.466	852.13484
1029.627	604.87482
1029.787	254.34764
1029.948	268.90067
1030.108	399.0159
1030.268	610.02634
1030.429	184.5336
1030.589	315.20599
1030.749	262.97255
1030.909	316.99929
1031.07	485.62472
1031.23	369.13649
1031.39	-43.41046
1031.55	484.01977
1031.71	-18.35021
1031.87	322.55782
1032.03	556.69485
1032.19	327.93603
1032.35	292.78047
1032.51	550.64499
1032.67	56.32603
1032.83	167.77409
1032.99	338.33113
1033.15	516.45936
1033.31	636.83656
1033.47	70.8021
1033.63	484.55477
1033.79	332.59636
1033.949	142.88654
1034.109	529.63947
1034.269	332.59636
1034.429	759.77825
1034.588	596.70177
1034.748	194.08023
1034.908	407.41971
1035.067	379.15926
1035.227	361.08004
1035.387	458.15074
1035.546	751.99701
1035.706	92.86318
1035.865	649.96731
1036.025	315.02666
1036.184	277.16208
1036.344	404.20151
1036.503	620.14935
1036.662	102.80289
1036.822	500.42203
1036.981	223.42036
1037.14	463.32628
1037.3	149.20072
1037.459	293.49835
1037.618	536.93958
1037.778	583.54945
1037.937	451.54619
1038.096	418.85945
1038.255	364.12384
1038.414	256.86351
1038.573	793.88876
1038.733	520.91272
1038.892	539.96596
1039.051	838.72917
1039.21	776.21915
1039.369	157.13649
1039.528	476.70728
1039.687	496.6788
1039.846	529.81754
1040.005	148.11839
1040.164	485.08975
1040.322	229.17681
1040.481	400.4465
1040.64	321.66135
1040.799	14.48246
1040.958	893.73067
1041.116	361.79626
1041.275	169.93717
1041.434	424.22034
1041.593	80.74989
1041.751	232.23446
1041.91	591.54812
1042.069	-61.22151
1042.227	435.47513
1042.386	760.1319
1042.544	194.8006
1042.703	252.19101
1042.861	426.5431
1043.02	38.76334
1043.178	648.72544
1043.337	704.91779
1043.495	502.91726
1043.653	179.84916
1043.812	121.22697
1043.97	268.18218
1044.129	263.51152
1044.287	415.10626
1044.445	422.25479
1044.603	-26.33783
1044.762	-9.82067
1044.92	801.48392
1045.078	429.22298
1045.236	254.16793
1045.394	373.25339
1045.552	814.55076
