Data from deutdg_571ms_7_SR4014911__0__16-49-19-706.txt Node

Date: Sun Jul 13 16:49:19 EDT 2025
User: cryst
Spectrometer: SR401491
Trigger mode: 0
Integration Time (sec): 5.710000E-1
Scans to average: 7
Electric dark correction enabled: true
Nonlinearity correction enabled: true
Boxcar width: 0
XAxis mode: Wavelengths
Number of Pixels in Spectrum: 3648
>>>>>Begin Spectral Data<<<<<
344.912	-1073.55661
345.129	-1041.28994
345.347	-1062.79511
345.565	-1040.15017
345.783	471.44563
346.001	251.51147
346.219	247.65985
346.437	311.83771
346.654	714.26638
346.872	209.57781
347.09	-125.25767
347.308	600.09138
347.526	365.28842
347.743	154.29053
347.961	883.37486
348.179	440.84669
348.397	507.97163
348.614	779.91874
348.832	1051.23576
349.05	1093.00862
349.268	1149.13569
349.485	1236.3202
349.703	976.28993
349.921	1436.95623
350.138	1330.63558
350.356	1351.83114
350.574	882.6197
350.791	1092.85844
351.009	1287.01697
351.227	1130.23556
351.444	993.00773
351.662	1112.67729
351.879	1021.90731
352.097	1174.32182
352.314	968.90761
352.532	1171.17443
352.75	1296.58109
352.967	1339.2942
353.185	1304.79851
353.402	1056.79809
353.62	1015.43695
353.837	1403.28386
354.055	1219.70677
354.272	1436.95623
354.49	1705.00186
354.707	1638.02172
354.925	1054.54319
355.142	1337.20435
355.359	1499.91172
355.577	1496.34213
355.794	1447.38051
356.012	1751.18297
356.229	1361.38063
356.446	1144.03655
356.664	1411.03377
356.881	1655.2201
357.099	1236.17056
357.316	1228.98718
357.533	1425.18872
357.751	1062.8105
357.968	2093.75791
358.185	1504.96816
358.402	1313.01432
358.62	1599.59962
358.837	1610.87727
359.054	1103.21955
359.272	1108.92449
359.489	1214.31717
359.706	1267.58308
359.923	1521.91801
360.141	1333.17363
360.358	1549.41104
360.575	1425.9336
360.792	1249.63601
361.009	1277.00218
361.226	1346.01087
361.444	1836.62561
361.661	1419.37829
361.878	1392.9982
362.095	1196.79601
362.312	1591.13963
362.529	1483.99514
362.746	1475.0675
362.963	1072.4284
363.181	1115.37907
363.398	1332.27787
363.615	1839.28419
363.832	1153.93428
364.049	1079.33977
364.266	1856.56169
364.483	1490.24344
364.7	1295.23627
364.917	992.10426
365.134	1409.09642
365.351	1357.94902
365.568	1580.74808
365.785	1253.07647
366.002	1061.15718
366.219	1265.19059
366.436	1583.56887
366.652	1658.33295
366.869	1272.06863
367.086	1719.6601
367.303	1065.66607
367.52	1219.55706
367.737	1698.33758
367.954	1556.54169
368.171	1324.51377
368.387	1994.14039
368.604	1327.35082
368.821	1479.23395
369.038	1229.28651
369.255	1511.06488
369.471	1011.67459
369.688	1737.27391
369.905	1612.95444
370.122	1515.97141
370.339	1501.25025
370.555	1170.5749
370.772	1095.41144
370.989	2041.10135
371.205	1226.14341
371.422	1422.3581
371.639	1258.61052
371.855	1873.09554
372.072	1265.48966
372.289	1159.63185
372.505	1801.16491
372.722	1111.0261
372.939	1357.20299
373.155	1711.96136
373.372	1223.29943
373.589	1553.57072
373.805	1302.55755
374.022	1223.29943
374.238	1110.72588
374.455	1564.85941
374.671	1584.45961
374.888	1552.08516
375.104	922.77211
375.321	1048.37911
375.537	1227.19113
375.754	1530.09333
375.97	1384.3504
376.187	1931.07129
376.403	1243.35268
376.62	1453.63391
376.836	1229.58584
377.053	1349.89114
377.269	1234.07554
377.486	1142.2367
377.702	781.88788
377.918	991.95368
378.135	1382.85923
378.351	1599.74803
378.568	1231.08246
378.784	1316.74825
379	1423.40098
379.217	1236.02092
379.433	1120.93216
379.649	1616.07003
379.865	1304.05154
380.082	1856.85698
380.298	1183.76252
380.514	1926.7953
380.731	1346.60786
380.947	1118.53092
381.163	1436.65835
381.379	1348.39877
381.596	1403.58196
381.812	1751.47886
382.028	1486.67309
382.244	1391.35823
382.46	1181.66478
382.676	1882.39357
382.893	1491.731
383.109	1348.99572
383.325	1295.98339
383.541	1703.52098
383.757	852.09789
383.973	1457.95122
384.189	1680.26546
384.405	1458.10009
384.622	1354.81558
384.838	1578.0756
385.054	1474.17463
385.27	1786.38244
385.486	1300.6153
385.702	1155.7336
385.918	1527.12065
386.134	1517.90414
386.35	1624.67392
386.566	1818.89828
386.782	1750.59117
386.998	1819.34154
387.214	1592.32709
387.43	1623.78393
387.646	1985.74513
387.861	1703.81716
388.077	1609.5419
388.293	1736.97793
388.509	1755.91709
388.725	1573.47263
388.941	1595.74087
389.157	1451.40066
389.373	1505.11687
389.588	1756.36089
389.804	1543.3194
390.02	1952.00406
390.236	1336.15938
390.452	1446.93381
390.668	1481.31703
390.883	1959.66759
391.099	1667.0775
391.315	1691.96866
391.531	1434.2753
391.746	1540.34758
391.962	1622.74559
392.178	1667.96669
392.393	1516.41743
392.609	2165.313
392.825	1587.72551
393.041	1439.48806
393.256	1782.53831
393.472	1786.38244
393.687	1767.30676
393.903	2045.81003
394.119	1830.12629
394.334	1866.89595
394.55	2124.32993
394.766	1729.28186
394.981	2047.42855
395.197	2065.81764
395.412	2273.00161
395.628	2213.75194
395.843	2358.26013
396.059	3042.28146
396.274	2179.40828
396.49	2576.63037
396.705	1908.21297
396.921	1467.92411
397.136	1854.49459
397.352	1845.48702
397.567	1684.11746
397.783	1785.34751
397.998	1801.16491
398.214	1868.22449
398.429	1474.62107
398.644	2296.15847
398.86	1673.1533
399.075	1970.12954
399.29	1645.2873
399.506	1547.47963
399.721	1714.18228
399.936	1572.73017
400.152	1525.18831
400.367	1767.89836
400.582	1719.6601
400.798	2026.38422
401.013	1399.11026
401.228	1878.4089
401.444	1932.39825
401.659	1790.6698
401.874	2155.32687
402.089	1853.1657
402.304	1874.71912
402.52	1851.09848
402.735	1514.48464
402.95	1506.15783
403.165	1882.83629
403.38	2179.8487
403.596	1708.70384
403.811	1956.27808
404.026	2422.49769
404.241	1660.85273
404.456	1680.70994
404.671	2235.90378
404.886	2024.7651
405.101	1720.99246
405.316	1863.94351
405.532	2296.74461
405.747	1950.38279
405.962	2007.3935
406.177	1860.10509
406.392	1825.399
406.607	2200.69186
406.822	2266.55138
407.037	2406.70003
407.252	2898.78559
407.467	2890.64531
407.682	2980.29237
407.896	3318.93862
408.111	3313.00451
408.326	3514.88026
408.541	4236.35901
408.756	4664.36431
408.971	4844.8951
409.186	4949.46453
409.401	4296.75144
409.616	2514.14088
409.83	1941.98091
410.045	1710.77683
410.26	1582.23273
410.475	1515.52538
410.69	1859.80981
410.905	1865.27213
411.119	1390.46368
411.334	1658.77763
411.549	1740.82552
411.764	2009.89652
411.978	2137.99406
412.193	1834.26231
412.408	1729.7259
412.623	1402.38955
412.837	2233.70361
413.052	1940.21193
413.267	1989.42741
413.481	1762.86953
413.696	1584.90497
413.911	1602.41929
414.125	1614.43808
414.34	1469.71006
414.554	1649.88333
414.769	1944.63428
414.984	1718.03162
415.198	1308.83193
415.413	1481.76339
415.627	1880.62264
415.842	1644.69424
416.056	1837.65952
416.271	1598.26394
416.485	1781.05971
416.7	1832.93291
416.914	1664.26163
417.129	1636.39052
417.343	1898.77189
417.558	1714.03422
417.772	1991.93123
417.987	1827.31951
418.201	1659.37052
418.415	1463.01237
418.63	1775.88431
418.844	1747.04025
419.059	2053.90218
419.273	1731.20599
419.487	2232.2368
419.702	1882.246
419.916	2355.47852
420.13	1746.74432
420.345	1673.00511
420.559	1692.8574
420.773	1792.44377
420.988	1860.10509
421.202	2253.9422
421.416	1753.40214
421.63	1878.55648
421.845	1966.74067
422.059	1847.99748
422.273	1560.10661
422.487	1844.74863
422.701	2369.239
422.916	2352.40399
423.13	1846.07773
423.344	1591.13963
423.558	1586.68639
423.772	1504.52203
423.986	1758.87569
424.201	1720.84442
424.415	2224.16869
424.629	1932.84057
424.843	1832.04663
425.057	2026.82579
425.271	1403.73101
425.485	1390.46368
425.699	1415.20623
425.913	2099.34437
426.127	1871.17669
426.341	1681.45072
426.555	1769.96891
426.769	2133.14586
426.983	2275.34699
427.197	1963.94102
427.411	1778.1024
427.625	2160.32014
427.839	1748.37187
428.053	1703.81716
428.267	1642.76671
428.481	2015.63832
428.695	1666.1883
428.908	1429.06192
429.122	2018.28818
429.336	1916.47257
429.55	1832.04663
429.764	2163.25717
429.978	2879.59657
430.191	3028.05812
430.405	4164.5832
430.619	4344.47781
430.833	5583.21977
431.047	7008.39383
431.26	9204.11558
431.474	10775.50665
431.688	12040.52301
431.901	12437.7966
432.115	14799.06944
432.329	16085.65467
432.543	17579.57244
432.756	20215.43978
432.97	20953.35614
433.184	15077.15585
433.397	7375.23057
433.611	3006.42867
433.824	2593.11989
434.038	1986.33431
434.252	1970.12954
434.465	1819.93254
434.679	1733.13004
434.892	1980.2949
435.106	1333.7708
435.319	1514.48464
435.533	2149.89254
435.747	2034.0376
435.96	1580.00574
436.174	2118.74584
436.387	2002.53439
436.601	1954.36218
436.814	2204.3607
437.027	1536.48393
437.241	2128.73806
437.454	1472.83531
437.668	2082.43636
437.881	2071.25969
438.095	1851.54146
438.308	2027.8561
438.521	2362.65189
438.735	1929.7443
438.948	1971.6029
439.161	1862.91011
439.375	1869.25778
439.588	2101.8434
439.801	2101.5494
440.015	1956.57283
440.228	2188.95011
440.441	2506.98326
440.654	2874.65325
440.868	2629.58819
441.081	1698.63379
441.294	2237.07716
441.507	2118.74584
441.721	1805.74661
441.934	2087.58279
442.147	1850.80315
442.36	1938.14805
442.573	2084.49499
442.786	1748.81574
443	2329.12069
443.213	1996.34945
443.426	2101.1084
443.639	2528.30793
443.852	2147.83618
444.065	2443.848
444.278	2235.46375
444.491	2404.65191
444.704	2084.05386
444.917	2268.60379
445.13	2130.20736
445.343	2030.79976
445.556	2875.38023
445.769	2996.41063
445.982	2291.76224
446.195	2506.39893
446.408	2318.28163
446.621	2616.6075
446.834	2121.391
447.047	2143.87015
447.26	2048.16423
447.473	2248.07661
447.686	2275.78674
447.899	2261.71327
448.111	2503.47722
448.324	2403.48154
448.537	2245.58357
448.75	2132.26432
448.963	2183.37199
449.176	2527.28566
449.388	2380.36242
449.601	2204.80095
449.814	2199.37103
450.027	2262.59295
450.239	2167.80928
450.452	2172.0674
450.665	1863.50063
450.878	2055.66759
451.09	2300.11482
451.303	2263.03279
451.516	2085.08315
451.728	2393.67883
451.941	1738.16184
452.154	2487.55181
452.366	2413.57538
452.579	1906.00037
452.792	2418.54862
453.004	2302.31269
453.217	2069.05352
453.429	2187.33544
453.642	1999.73653
453.854	2375.09366
454.067	2639.06707
454.28	2784.75093
454.492	1809.29346
454.705	2028.73922
454.917	1966.88802
455.13	2640.67107
455.342	2372.31276
455.555	1908.65549
455.767	2792.61034
455.979	2245.43692
456.192	2516.77003
456.404	1938.88516
456.617	2290.58986
456.829	2126.97484
457.041	2532.5429
457.254	2454.81307
457.466	2118.01105
457.679	2181.16996
457.891	2636.00479
458.103	2409.77208
458.315	2341.27589
458.528	1995.31857
458.74	2200.98538
458.952	2194.96804
459.165	2197.02281
459.377	1891.39489
459.589	1629.86517
459.801	2216.83313
460.014	2231.79675
460.226	2105.07728
460.438	2061.5519
460.65	1787.5652
460.862	2215.65936
461.075	2121.0971
461.287	1767.45466
461.499	1492.02851
461.711	1598.11552
461.923	1928.41727
462.135	2192.9132
462.347	2013.57723
462.559	2189.53725
462.771	2275.05382
462.983	1874.71912
463.196	2241.47718
463.408	2454.95925
463.62	2392.06929
463.832	2512.24199
464.044	2381.09416
464.256	2515.74759
464.468	2010.77991
464.68	2228.71629
464.891	2393.67883
465.103	2020.3491
465.315	2638.77543
465.527	1848.73583
465.739	1647.06646
465.951	1936.52637
466.163	1953.03575
466.375	1704.11334
466.587	2343.76523
466.799	1846.37308
467.01	1853.75632
467.222	1985.74513
467.434	1777.21518
467.646	1826.43313
467.858	2118.30496
468.069	1945.66611
468.281	1624.67392
468.493	1396.27795
468.705	1614.58644
468.916	1735.20202
469.128	1451.10288
469.34	1559.36394
469.551	1631.94152
469.763	1179.86663
469.975	1623.6356
470.186	1744.96876
470.398	1512.84914
470.61	1566.19605
470.821	1369.28719
471.033	1637.13198
471.245	2125.94628
471.456	1410.43767
471.668	1772.48304
471.879	1528.45838
472.091	2017.69933
472.302	2183.66559
472.514	2172.6547
472.725	1818.45502
472.937	1580.89655
473.148	1491.58225
473.36	1720.54834
473.571	2017.99376
473.783	1719.80815
473.994	1811.95344
474.206	1682.63596
474.417	1641.43223
474.629	1997.38032
474.84	2130.06043
475.051	2116.39448
475.263	1602.12249
475.474	1732.53803
475.685	1953.18313
475.897	1720.25227
476.108	2229.30306
476.319	1551.78805
476.531	1726.46954
476.742	2109.0459
476.953	2208.90976
477.165	2605.37521
477.376	1878.11372
477.587	1970.57155
477.798	1991.19482
478.01	1659.66697
478.221	1997.52759
478.432	1993.69856
478.643	1955.54121
478.854	1717.29139
479.065	2601.29033
479.277	2357.96733
479.488	2239.57054
479.699	2358.26013
479.91	2125.35852
480.121	2374.2155
480.332	2256.14166
480.543	2369.97086
480.754	1823.7739
480.965	2139.02242
481.176	2270.50955
481.387	2827.38652
481.598	2323.40844
481.809	3029.79987
482.02	4299.48306
482.231	8851.03296
482.442	17066.12905
482.653	30706.7191
482.864	45787.16478
483.075	62777.40311
483.286	62777.40311
483.497	62777.40311
483.708	62777.40311
483.919	62777.40311
484.13	62777.40311
484.341	62777.40311
484.551	62777.40311
484.762	62777.40311
484.973	62777.40311
485.184	62777.40311
485.395	62777.40311
485.605	62777.40311
485.816	62777.40311
486.027	62777.40311
486.238	62777.40311
486.449	34885.75908
486.659	4932.39705
486.87	4309.83414
487.081	3918.40253
487.291	3694.06333
487.502	3117.28172
487.713	2936.13397
487.923	3036.47627
488.134	2691.25284
488.345	3586.38098
488.555	3153.23814
488.766	2564.66223
488.976	3157.15197
489.187	3005.12203
489.398	3070.43156
489.608	3014.70362
489.819	2485.06771
490.029	2371.28819
490.24	3243.21814
490.45	3067.38479
490.661	2845.56914
490.871	2509.61267
491.082	2175.88476
491.292	2359.57769
491.503	2724.17897
491.713	2744.56884
491.924	2682.94628
492.134	2525.53316
492.344	2643.73316
492.555	2680.32298
492.765	2842.22383
492.975	2755.63546
493.186	2781.25762
493.396	2801.63317
493.607	2230.62326
493.817	2867.52856
494.027	2465.19173
494.237	2313.8869
494.448	2365.28681
494.658	2697.3729
494.868	2101.6964
495.078	2590.6394
495.289	3027.04208
495.499	2563.34853
495.709	2297.62382
495.919	2465.92257
496.129	2534.58728
496.34	2054.34354
496.55	1916.62005
496.76	2558.96938
496.97	2715.43885
497.18	2348.4508
497.39	2336.44337
497.6	2775.58068
497.81	2938.31335
498.021	2888.61012
498.231	3036.62141
498.441	2561.45093
498.651	2369.97086
498.861	1975.28611
499.071	2415.33068
499.281	2681.92612
499.491	2349.47572
499.701	2393.67883
499.911	2491.35086
500.121	2537.21569
500.331	2672.59828
500.54	3213.95791
500.75	2672.16101
500.96	2522.75828
501.17	2289.41746
501.38	2489.88971
501.59	2688.33836
501.8	2285.60702
502.01	1955.68858
502.219	2505.66852
502.429	2788.09855
502.639	2939.03979
502.849	2796.10316
503.059	2311.10342
503.268	2425.42278
503.478	2214.19212
503.688	2631.19239
503.898	2416.06204
504.107	2456.12876
504.317	2953.85804
504.527	2694.31293
504.736	2695.62436
504.946	2374.2155
505.156	2709.3202
505.365	2295.13271
505.575	2338.05425
505.785	2349.76855
505.994	2703.20108
506.204	2302.75226
506.413	2285.02077
506.623	1930.18663
506.832	2319.89295
507.042	2484.77546
507.251	2640.67107
507.461	2489.01301
507.67	2402.16484
507.88	2206.85539
508.089	2332.19632
508.299	2395.58096
508.508	2386.50878
508.718	1947.8771
508.927	2152.0957
509.137	2711.65117
509.346	2522.61223
509.555	2220.35431
509.765	2160.61385
509.974	3463.86567
510.184	2596.038
510.393	2214.77902
510.602	2287.80538
510.812	2761.1682
511.021	2374.36186
511.23	2960.39472
511.439	2145.48597
511.649	2200.69186
511.858	2387.53312
512.067	2451.45063
512.276	2508.73621
512.486	3289.40962
512.695	2294.10694
512.904	1940.8016
513.113	2228.42291
513.322	2355.03931
513.531	2408.60179
513.741	2675.6591
513.95	1900.68974
514.159	2454.3745
514.368	2017.99376
514.577	2187.04186
514.786	2080.81882
514.995	2200.69186
515.204	2321.21128
515.413	1930.77641
515.622	1991.63667
515.831	2178.67423
516.04	2153.71131
516.249	1912.49042
516.458	2043.0143
516.667	2210.37713
516.876	2521.44383
517.085	2192.47287
517.294	2457.88297
517.503	2167.95611
517.712	2169.71813
517.921	2339.22578
518.13	2386.06977
518.339	2472.49973
518.547	2934.39043
518.756	2076.55417
518.965	2257.31467
519.174	2213.31176
519.383	2238.69054
519.591	1953.62528
519.8	1725.72943
520.009	2237.37051
520.218	1991.19482
520.426	2142.10738
520.635	2383.28933
520.844	2188.06939
521.053	2370.11723
521.261	2513.70267
521.47	2232.82353
521.679	2426.73903
521.887	2225.92909
522.096	2163.25717
522.304	1881.06538
522.513	1751.9227
522.722	1833.22834
522.93	2487.55181
523.139	2196.28897
523.347	2019.61307
523.556	1822.29649
523.764	1996.49672
523.973	1986.77619
524.182	1928.56472
524.39	2287.0726
524.598	1974.54949
524.807	1755.62122
525.015	2166.63457
525.224	2246.17018
525.432	2078.46595
525.641	1820.52354
525.849	1983.09373
526.057	2123.44827
526.266	2468.55351
526.474	1836.0348
526.683	2002.97614
526.891	2246.61013
527.099	2018.72981
527.308	2095.22808
527.516	1734.61004
527.724	2233.70361
527.932	1863.05774
528.141	2344.49738
528.349	2627.25475
528.557	2141.51978
528.765	1968.80349
528.974	1781.94687
529.182	2009.45482
529.39	2076.70123
529.598	1849.17884
529.806	1763.6091
530.015	2149.74566
530.223	1914.70277
530.431	1826.7286
530.639	1689.15422
530.847	1897.4441
531.055	2103.90134
531.263	2167.22193
531.471	1647.21472
531.679	1641.28395
531.887	2095.96316
532.095	2232.2368
532.303	2367.77526
532.511	2099.63838
532.719	2043.0143
532.927	2088.90609
533.135	2231.79675
533.343	2532.98099
533.551	2217.12657
533.759	2114.48394
533.967	2513.26447
534.175	2251.00948
534.383	2677.69958
534.591	2560.5751
534.798	2429.95643
535.006	1985.74513
535.214	2111.10359
535.422	1937.8532
535.63	2250.7162
535.837	1776.47581
536.045	1878.99924
536.253	2067.28852
536.461	2118.15801
536.668	2133.29278
536.876	2422.05891
537.084	2669.97463
537.292	2414.74559
537.499	2637.17139
537.707	2334.686
537.915	2530.06036
538.122	2706.84347
538.33	2621.27497
538.538	2294.98617
538.745	2508.00582
538.953	2608.73049
539.16	2399.38505
539.368	2222.11482
539.575	2048.60563
539.783	2199.22427
539.99	2887.15639
540.198	2257.60792
540.406	2252.76913
540.613	2154.59253
540.82	2081.55407
541.028	2371.87366
541.235	2450.28105
541.443	2753.8882
541.65	3082.47263
541.858	2579.25727
542.065	2202.01267
542.272	2061.8461
542.48	2873.78087
542.687	2102.57839
542.895	2677.69958
543.102	2308.17331
543.309	2440.1926
543.516	2482.29126
543.724	2426.88528
543.931	2193.50031
544.138	2579.69507
544.346	2291.3226
544.553	2427.61652
544.76	2297.33075
544.967	2158.85157
545.174	2405.38339
545.382	2314.61937
545.589	2376.11817
545.796	2615.44059
546.003	1972.19223
546.21	2446.18736
546.417	2913.46525
546.624	2575.75472
546.832	2470.16126
547.039	2539.40595
547.246	2820.83981
547.453	2512.97233
547.66	2171.18643
547.867	2544.51631
548.074	2435.22093
548.281	2246.90343
548.488	2212.28466
548.695	2111.10359
548.902	2356.50334
549.109	2198.19693
549.316	1879.44199
549.523	1979.70565
549.73	2201.13214
549.936	2292.20188
550.143	2000.76733
550.35	1988.24911
550.557	1932.10338
550.764	1914.2603
550.971	2438.73038
551.178	2224.31539
551.384	2541.15811
551.591	2504.64592
551.798	2558.96938
552.005	2193.64708
552.211	2502.89287
552.418	2238.10386
552.625	1849.91717
552.832	2499.82492
553.038	2432.00378
553.245	2496.90295
553.452	2493.39641
553.658	2119.48061
553.865	2122.86048
554.072	2278.71832
554.278	2338.64002
554.485	3060.71056
554.691	2794.0657
554.898	2223.87528
555.105	2672.45253
555.311	2325.89846
555.518	2678.86555
555.724	2490.32806
555.931	1918.68475
556.137	2025.64826
556.344	2361.04161
556.55	2426.88528
556.757	2417.52474
556.963	2414.89186
557.17	2482.87578
557.376	2517.06215
557.582	2724.47029
557.789	2136.52495
557.995	2110.36871
558.202	2230.32988
558.408	2284.72765
558.614	1982.0626
558.821	2368.65351
559.027	2535.75547
559.233	2462.12215
559.439	2944.85116
559.646	2412.1126
559.852	2726.07253
560.058	2733.93763
560.264	2567.87339
560.471	2423.22897
560.677	2739.18059
560.883	2711.06844
561.089	2741.21943
561.295	2365.57958
561.502	2521.44383
561.708	2245.43692
561.914	2602.45746
562.12	2556.48774
562.326	2718.20666
562.532	2619.23299
562.738	2724.47029
562.944	2266.25817
563.15	2569.77082
563.356	2148.42372
563.562	2544.3703
563.768	2639.35871
563.974	2082.58341
564.18	2548.60434
564.386	2518.37668
564.592	2227.24936
564.798	2207.00213
565.004	2778.34642
565.21	2073.17164
565.416	2677.40809
565.622	2555.31988
565.828	2570.50059
566.034	2950.51688
566.239	2564.80819
566.445	3093.932
566.651	3100.1688
566.857	3437.4105
567.063	3113.51133
567.268	3337.89669
567.474	3511.70151
567.68	3408.20171
567.886	3803.96855
568.091	4155.51942
568.297	3798.20133
568.503	4025.41182
568.708	4322.77227
568.914	4600.62061
569.12	4574.19986
569.325	4259.94295
569.531	4268.85811
569.737	3518.20342
569.942	3806.1312
570.148	4515.03049
570.353	5215.27707
570.559	5120.81401
570.765	4687.33141
570.97	4882.19376
571.176	5507.87253
571.381	4493.48475
571.587	3722.34104
571.792	3979.62087
571.998	4011.44545
572.203	4134.225
572.408	5343.68265
572.614	5906.01932
572.819	5485.52462
573.025	4972.98479
573.23	4740.4358
573.435	4807.59219
573.641	4939.28151
573.846	4400.6722
574.051	4981.30257
574.257	5321.7585
574.462	5323.04818
574.667	4856.08514
574.873	4800.56154
575.078	5622.17958
575.283	5161.66921
575.488	5660.99425
575.694	6185.50057
575.899	4954.77107
576.104	5266.15594
576.309	5600.40817
576.514	5513.88915
576.719	7039.31913
576.925	7823.21388
577.13	7058.21811
577.335	6414.41633
577.54	5998.37357
577.745	4970.54679
577.95	5370.19107
578.155	4909.73475
578.36	4667.09175
578.565	4865.40988
578.77	6270.8266
578.975	6534.0963
579.18	5686.05812
579.385	6239.61702
579.59	7058.50446
579.795	5747.92702
580	4833.99162
580.205	5156.22207
580.41	7188.65398
580.615	10196.12685
580.82	10604.70805
581.024	8898.04911
581.229	8529.84158
581.434	7961.58877
581.639	6529.3721
581.844	5410.16631
582.049	4992.20145
582.253	5588.51957
582.458	4866.55752
582.663	4020.6605
582.868	4269.57706
583.072	4218.09392
583.277	5323.76467
583.482	6220.433
583.686	6366.17176
583.891	5897.5711
584.096	6243.33928
584.3	6789.20587
584.505	5666.86642
584.71	6026.00714
584.914	6372.18445
585.119	5942.24583
585.323	5557.57968
585.528	4352.0958
585.733	4759.66584
585.937	5072.64287
586.142	4299.05176
586.346	5708.97302
586.551	5431.65725
586.755	5576.20107
586.959	7046.04829
587.164	6663.51114
587.368	5609.57515
587.573	6415.27528
587.777	9203.68547
587.982	26135.56936
588.186	53538.77848
588.39	26190.01934
588.595	18346.26312
588.799	32112.4478
589.003	15883.20176
589.208	6902.01922
589.412	5690.92758
589.616	5114.21948
589.82	5196.64403
590.025	4012.16539
590.229	4124.44026
590.433	3858.3137
590.637	4110.48171
590.842	4982.73666
591.046	5534.6604
591.25	4796.25699
591.454	3688.14737
591.658	4356.83894
591.862	6210.84094
592.067	8918.54742
592.271	7689.29217
592.475	6149.42232
592.679	6616.84149
592.883	5802.20225
593.087	6170.1817
593.291	5246.09167
593.495	4748.61589
593.699	4445.9337
593.903	5765.11211
594.107	7172.18799
594.311	7080.41029
594.515	6320.93317
594.719	5598.54611
594.923	5151.06156
595.127	5881.39044
595.33	5268.30563
595.534	4327.51605
595.738	5539.96055
595.942	5300.26337
596.146	4440.61773
596.35	5311.44095
596.553	4860.81927
596.757	5264.86612
596.961	6649.05211
597.165	5376.20902
597.369	4016.19702
597.572	4408.86304
597.776	4333.84093
597.98	5994.5077
598.183	6689.99557
598.387	6170.89753
598.591	4937.84726
598.794	4804.00515
598.998	5167.40297
599.202	5780.14881
599.405	6391.51093
599.609	5909.45587
599.812	6463.80589
600.016	6290.01033
600.22	6861.64652
600.423	6838.74024
600.627	6230.16819
600.83	5075.08023
601.034	6438.46692
601.237	7087.99863
601.441	4586.9798
601.644	4862.25384
601.847	6049.91768
602.051	5711.83734
602.254	5169.40977
602.458	6097.30828
602.661	6803.80842
602.864	5751.7937
603.068	5297.8272
603.271	4675.13037
603.475	4590.85673
603.678	4937.56041
603.881	4801.70942
604.084	4016.62898
604.288	4397.36704
604.491	5764.53928
604.694	5678.89709
604.897	4347.35256
605.101	4736.27391
605.304	5152.63839
605.507	4333.69719
605.71	3997.04593
605.913	5296.68076
606.116	5565.88774
606.32	5208.11061
606.523	4882.62411
606.726	4730.67679
606.929	5062.03299
607.132	5151.63495
607.335	5502.71539
607.538	4474.52293
607.741	4329.38479
607.944	3775.8512
608.147	3825.01701
608.35	4301.06451
608.553	4117.24527
608.756	4348.78991
608.959	4701.82843
609.162	5643.9504
609.365	5210.69055
609.568	4934.69188
609.771	3841.01763
609.973	4903.99722
610.176	4826.96155
610.379	4121.85009
610.582	4098.24912
610.785	4680.01085
610.988	4647.71199
611.19	3767.63126
611.393	3872.7256
611.596	3501.15322
611.799	3660.00696
612.001	4488.0262
612.204	3768.0639
612.407	3770.65972
612.609	4274.46584
612.812	4608.51761
613.015	4458.5766
613.217	4404.40841
613.42	3779.45629
613.623	4015.90905
613.825	4650.15248
614.028	4872.72603
614.23	4031.60273
614.433	3676.45898
614.636	4196.23111
614.838	4911.02568
615.041	5084.82955
615.243	3261.32063
615.446	2922.91126
615.648	2935.84338
615.85	3351.06413
616.053	2801.48765
616.255	3768.64075
616.458	3377.68368
616.66	3270.73271
616.863	2800.17794
617.065	3208.74235
617.267	3610.49441
617.47	3346.57869
617.672	3114.0914
617.874	3017.89726
618.077	3126.56204
618.279	3467.91294
618.481	3783.63809
618.683	2757.81948
618.886	2724.03331
619.088	4231.61312
619.29	4002.80589
619.492	3013.39709
619.694	3027.91297
619.897	3420.20423
620.099	2695.91578
620.301	2016.96326
620.503	2015.78553
620.705	2736.99606
620.907	2889.19161
621.109	2723.15934
621.311	3090.74092
621.513	3531.20623
621.715	3376.52644
621.917	3523.98262
622.119	3403.86315
622.321	3218.30401
622.523	3383.46972
622.725	2854.87714
622.927	2529.18415
623.129	2785.47869
623.331	2787.66191
623.533	2530.93656
623.735	3153.67302
623.937	3263.49272
624.139	2550.35628
624.341	2648.54477
624.542	2042.27856
624.744	2217.12657
624.946	2752.72334
625.148	2672.8898
625.35	2795.66657
625.551	2314.61937
625.753	1968.65615
625.955	2274.46749
626.156	2636.15062
626.358	2759.42106
626.56	2523.34248
626.762	3136.85639
626.963	2744.56884
627.165	2525.24107
627.366	2762.33294
627.568	2636.58809
627.77	2366.1651
627.971	2768.44755
628.173	2585.2404
628.374	2323.55491
628.576	2476.73802
628.777	3200.48385
628.979	2107.72305
629.18	1964.38308
629.382	1905.41032
629.583	2632.0674
629.785	2478.0533
629.986	2003.27064
630.188	1973.5182
630.389	2138.87551
630.591	2433.31991
630.792	1876.34265
630.993	1705.29803
631.195	1795.99153
631.396	1890.36202
631.597	1931.8085
631.799	1906.29539
632	2373.33732
632.201	2035.65645
632.402	2422.20517
632.604	2480.39151
632.805	2064.19964
633.006	2264.05906
633.207	2435.22093
633.409	2423.96025
633.61	2039.92412
633.811	2071.25969
634.012	2394.99569
634.213	2296.15847
634.414	2306.85472
634.615	2263.61923
634.816	2715.58453
635.017	2346.69375
635.219	2512.38806
635.42	2440.1926
635.621	2309.93139
635.822	2996.99142
636.023	2515.01727
636.224	2391.77664
636.425	2194.52772
636.626	1958.93076
636.826	1907.47545
637.027	2419.42621
637.228	2053.90218
637.429	1838.8411
637.63	1998.85296
637.831	1719.06794
638.032	1834.70544
638.233	1614.58644
638.433	1694.19047
638.634	1930.33408
638.835	1845.33934
639.036	2048.4585
639.237	1355.26323
639.437	1331.68068
639.638	1653.73773
639.839	1830.86489
640.039	1485.63168
640.24	1930.77641
640.441	1556.09606
640.641	1327.05219
640.842	1715.21867
641.043	1562.48307
641.243	1399.85558
641.444	1520.72875
641.645	1923.10884
641.845	1492.92101
642.046	1578.52102
642.246	1461.22615
642.447	1132.03597
642.647	1691.67241
642.848	2029.18077
643.048	2007.83522
643.249	1763.16536
643.449	1573.32414
643.65	1365.2595
643.85	1279.39399
644.05	1838.69341
644.251	1366.75128
644.451	1633.57287
644.651	1582.82657
644.852	1600.19325
645.052	1474.62107
645.252	1537.07836
645.453	1229.43618
645.653	1393.74362
645.853	1291.94874
646.054	1369.13802
646.254	1386.58707
646.454	1117.63042
646.654	1098.41475
646.854	1405.51955
647.055	1603.16128
647.255	1264.89152
647.455	2113.30819
647.655	1718.32772
647.855	1835.88709
648.055	1669.74502
648.255	1411.77888
648.455	1789.78279
648.655	1710.9249
648.856	1855.23285
649.056	1687.82101
649.256	1788.15656
649.456	1649.58683
649.656	1681.30257
649.856	1756.65676
650.055	1742.74921
650.255	2209.93692
650.455	2171.0396
650.655	2231.06332
650.855	2899.36701
651.055	3591.43506
651.255	3856.87244
651.455	3843.75631
651.655	3036.33114
651.854	2895.73308
652.054	2397.19041
652.254	2877.56112
652.454	3632.43811
652.654	3733.73707
652.853	5514.46215
653.053	7379.95609
653.253	13073.91831
653.452	30795.29664
653.652	62777.40311
653.852	62777.40311
654.051	62777.40311
654.251	62777.40311
654.451	62777.40311
654.65	62777.40311
654.85	62777.40311
655.049	62777.40311
655.249	62777.40311
655.449	62777.40311
655.648	62777.40311
655.848	62777.40311
656.047	62777.40311
656.247	62777.40311
656.446	62777.40311
656.645	62777.40311
656.845	62777.40311
657.044	62777.40311
657.244	62777.40311
657.443	62777.40311
657.643	62777.40311
657.842	62777.40311
658.041	62777.40311
658.241	62777.40311
658.44	62777.40311
658.639	62777.40311
658.839	62777.40311
659.038	62777.40311
659.237	62777.40311
659.436	62777.40311
659.636	62777.40311
659.835	62777.40311
660.034	62777.40311
660.233	62777.40311
660.432	62777.40311
660.631	62777.40311
660.831	62777.40311
661.03	62777.40311
661.229	62777.40311
661.428	62777.40311
661.627	62777.40311
661.826	62777.40311
662.025	62777.40311
662.224	62777.40311
662.423	62777.40311
662.622	62777.40311
662.821	62777.40311
663.02	62777.40311
663.219	62777.40311
663.418	62777.40311
663.617	62777.40311
663.816	62777.40311
664.015	62777.40311
664.214	40412.61081
664.412	4191.6281
664.611	3602.84213
664.81	3179.0376
665.009	3314.45189
665.208	2643.29572
665.406	2032.4187
665.605	2443.55558
665.804	1981.91529
666.003	2201.71916
666.201	1609.09677
666.4	1708.70384
666.599	1837.51182
666.798	1624.08059
666.996	1753.40214
667.195	1407.00995
667.394	1365.85622
667.592	1867.78165
667.791	1497.23456
667.989	1812.54452
668.188	1526.67474
668.386	1977.64325
668.585	1429.95568
668.783	1726.02547
668.982	1712.25749
669.18	1905.41032
669.379	1481.61461
669.577	1161.73075
669.776	1114.92879
669.974	1722.32478
670.173	1362.27578
670.371	1305.69486
670.57	1195.7475
670.768	1390.16549
670.966	1680.1173
671.165	1799.24343
671.363	1524.89102
671.561	1538.56439
671.76	1869.99583
671.958	2053.90218
672.156	1537.82138
672.354	1253.82436
672.553	1273.2647
672.751	877.33314
672.949	1081.59322
673.147	1530.68784
673.345	1028.0757
673.543	1557.73003
673.742	773.40464
673.94	1021.75685
674.138	1078.28812
674.336	1103.51984
674.534	1033.19017
674.732	1589.20994
674.93	1195.29812
675.128	894.70033
675.326	961.67451
675.524	977.04315
675.722	1363.91685
675.92	1039.95828
676.118	821.70097
676.316	1197.39515
676.514	1138.48673
676.712	870.08173
676.91	1110.42565
677.108	1155.88354
677.305	1423.54996
677.503	1179.41708
677.701	1105.32147
677.899	896.81402
678.097	1133.23619
678.295	924.12987
678.492	849.98154
678.69	1383.75394
678.888	985.47812
679.085	1648.99381
679.283	1010.32005
679.481	705.61442
679.679	934.53768
679.876	1002.49287
680.074	1125.43408
680.271	890.01957
680.469	807.6278
680.667	1212.52047
680.864	1060.55596
681.062	1294.33969
681.259	1215.06577
681.457	698.93419
681.654	1154.23418
681.852	733.38386
682.049	871.59256
682.247	752.33895
682.444	807.02237
682.642	1075.58375
682.839	669.46448
683.037	1028.527
683.234	1309.87757
683.431	1058.60191
683.629	650.76648
683.826	878.54157
684.023	1041.7629
684.221	1435.3179
684.418	1471.49594
684.615	1654.33068
684.813	1767.89836
685.01	1673.44966
685.207	1043.56743
685.404	727.16428
685.601	1304.9479
685.799	1500.65535
685.996	1035.29594
686.193	998.27755
686.39	724.5851
686.587	1095.56161
686.784	1138.63674
686.981	1270.5735
687.179	1107.42327
687.376	683.89879
687.573	881.71349
687.77	1113.5779
687.967	797.18272
688.164	944.33941
688.361	671.59203
688.558	1010.01904
688.755	737.02406
688.952	1461.375
689.148	996.77196
689.345	845.74846
689.542	937.25227
689.739	878.08841
689.936	730.04667
690.133	1152.28483
690.33	770.22288
690.526	1091.80716
690.723	1635.05586
690.92	1303.30455
691.117	792.48899
691.314	671.44007
691.51	668.09669
691.707	848.3186
691.904	822.91131
692.1	1377.1923
692.297	742.48362
692.494	745.97122
692.69	1605.23878
692.887	1373.46366
693.084	952.78187
693.28	865.24664
693.477	812.01682
693.673	859.80637
693.87	810.04939
694.066	679.49319
694.263	726.55743
694.459	844.9925
694.656	826.54205
694.852	947.20403
695.049	817.76711
695.245	1060.10503
695.442	834.40736
695.638	514.08059
695.834	632.20997
696.031	992.85715
696.227	1063.71228
696.423	1392.84912
696.62	1362.12659
696.816	1288.5115
697.012	735.8107
697.209	1025.81909
697.405	1230.33416
697.601	1371.22631
697.797	891.68055
697.994	761.43364
698.19	551.92963
698.386	1091.20642
698.582	1179.26723
698.778	652.43909
698.974	582.8773
699.17	697.71946
699.367	861.01539
699.563	1364.51359
699.759	474.80965
699.955	813.98413
700.151	794.60882
700.347	804.75193
700.543	965.14054
700.739	1370.62967
700.935	709.10583
701.131	636.77402
701.327	708.80225
701.523	1259.50786
701.718	706.06985
701.914	995.56745
702.11	1121.2323
702.306	1173.87221
702.502	772.95012
702.698	544.60755
702.894	740.66387
703.089	691.49328
703.285	768.10155
703.481	674.32726
703.677	916.8879
703.872	678.88548
704.068	732.47375
704.264	563.06205
704.459	307.22534
704.655	508.58258
704.851	535.91038
705.046	384.61752
705.242	287.22994
705.438	313.52873
705.633	595.67449
705.829	577.54363
706.024	867.36207
706.22	1328.24669
706.415	1047.02589
706.611	980.35712
706.806	1208.77711
707.002	852.24905
707.197	955.94729
707.393	989.99607
707.588	692.70823
707.784	1019.95127
707.979	625.3627
708.174	589.58122
708.37	604.3554
708.565	829.71864
708.76	638.59946
708.956	789.91473
709.151	629.31908
709.346	581.50587
709.542	431.50793
709.737	511.02626
709.932	998.57866
710.127	938.30788
710.322	595.06521
710.518	641.64164
710.713	477.71465
710.908	356.84718
711.103	659.88878
711.298	945.24405
711.493	546.28567
711.688	511.63715
711.883	547.04843
712.078	1100.51692
712.273	1050.93507
712.468	497.58366
712.663	784.61419
712.858	890.92557
713.053	804.29782
713.248	944.94251
713.443	669.3125
713.638	567.48344
713.833	498.19482
714.028	760.82741
714.223	1215.06577
714.418	1380.62237
714.613	695.28987
714.807	1297.47761
715.002	638.75158
715.197	750.97454
715.392	184.26422
715.587	473.89223
715.781	657.30438
715.976	505.98596
716.171	1062.6602
716.365	699.23787
716.56	890.01957
716.755	376.64195
716.949	650.46236
717.144	828.81107
717.339	633.42711
717.533	879.59891
717.728	1076.63547
717.922	428.29228
718.117	345.17897
718.312	892.58651
718.506	618.97061
718.701	1323.61783
718.895	1357.65061
719.089	974.63281
719.284	829.86989
719.478	622.62339
719.673	233.94385
719.867	987.88776
720.062	713.81107
720.256	622.319
720.45	488.87343
720.645	369.43143
720.839	818.52366
721.033	881.26038
721.228	425.99518
721.422	809.14131
721.616	504.30568
721.81	776.28311
722.005	812.62216
722.199	981.11025
722.393	496.36132
722.587	501.86148
722.781	848.01625
722.975	1041.46213
723.169	806.26557
723.364	856.17905
723.558	417.26462
723.752	693.01196
723.946	1111.92676
724.14	736.56906
724.334	763.40384
724.528	793.3975
724.722	590.34295
724.916	1110.57577
725.11	776.73759
725.304	849.22567
725.498	1027.32351
725.692	762.49453
725.885	932.87866
726.079	1232.72868
726.273	670.83221
726.467	568.09324
726.661	555.28501
726.855	924.43159
727.048	1102.3187
727.242	593.38965
727.436	816.10265
727.63	662.16896
727.823	941.02219
728.017	447.88715
728.211	678.12582
728.405	989.99607
728.598	667.79273
728.792	736.72072
728.986	1009.417
729.179	864.94442
729.373	614.09961
729.566	829.56738
729.76	812.62216
729.953	828.50854
730.147	1177.46897
730.34	961.67451
730.534	1706.3346
730.727	1069.27279
730.921	1076.93596
731.114	1144.4865
731.308	910.54999
731.501	896.05915
731.695	708.49866
731.888	775.07115
732.081	700.45254
732.275	844.08533
732.468	856.48134
732.661	931.52123
732.855	540.64071
733.048	618.51399
733.241	405.61995
733.434	1204.13486
733.628	1017.69418
733.821	1270.5735
734.014	1014.83499
734.207	1127.08466
734.4	633.57925
734.594	809.59536
734.787	953.83704
734.98	952.48039
735.173	1096.61279
735.366	651.37471
735.559	984.57447
735.752	556.04755
735.945	341.95404
736.138	543.23447
736.331	816.5566
736.524	1165.77832
736.717	697.71946
736.91	809.14131
737.103	896.3611
737.296	690.88578
737.489	871.74364
737.682	241.65028
737.875	395.19722
738.067	882.31763
738.26	834.10488
738.453	983.67079
738.646	839.85155
738.839	890.77457
739.031	870.08173
739.224	742.63527
739.417	972.37296
739.61	1170.12524
739.802	538.8097
739.995	369.27799
740.188	1103.21955
740.38	737.17573
740.573	676.30257
740.765	626.27575
740.958	131.55693
741.151	933.33113
741.343	313.83618
741.536	488.7206
741.728	450.48865
741.921	703.1854
742.113	405.77319
742.306	499.41709
742.498	552.99729
742.691	698.93419
742.883	417.4178
743.076	492.08275
743.268	377.40892
743.46	934.23604
743.653	377.40892
743.845	793.70033
744.037	634.94848
744.23	521.40976
744.422	593.54198
744.614	530.56882
744.807	528.88986
744.999	702.12265
745.191	790.67188
745.383	745.66796
745.575	411.74928
745.768	697.71946
745.96	699.08603
746.152	791.73187
746.344	490.86019
746.536	949.76693
746.728	828.05474
746.92	898.92759
747.112	524.46308
747.304	742.33198
747.496	604.05084
747.688	483.82955
747.88	109.88843
748.072	1030.78345
748.264	482.14807
748.456	596.28375
748.648	510.26263
748.84	653.35138
749.032	468.69297
749.224	917.79323
749.416	794.60882
749.608	1050.93507
749.799	714.87345
749.991	936.79985
750.183	936.19662
750.375	523.08912
750.567	671.59203
750.758	251.20336
750.95	642.70634
751.142	575.10509
751.333	428.59855
751.525	710.62372
751.717	773.85915
751.908	1215.81435
752.1	514.23329
752.292	658.97666
752.483	596.43606
752.675	619.42723
752.866	714.26638
753.058	1336.60723
753.249	988.03836
753.441	890.77457
753.632	388.91118
753.824	474.65675
754.015	454.00797
754.207	1104.12039
754.398	906.02223
754.589	524.15776
754.781	495.44453
754.972	605.72585
755.164	630.84063
755.355	677.2142
755.546	727.4677
755.738	534.68953
755.929	730.95684
756.12	1189.60564
756.311	1237.36767
756.503	887.45244
756.694	929.25873
756.885	905.87129
757.076	1514.18728
757.267	1511.06488
757.458	1062.3596
757.65	1042.06366
757.841	872.34796
758.032	1352.87572
758.223	1127.98494
758.414	1167.12741
758.605	1060.85657
758.796	665.20895
758.987	1219.85647
759.178	767.3439
759.369	435.79493
759.56	706.52526
759.751	705.91804
759.942	887.45244
760.133	575.56233
760.324	812.31949
760.514	737.32739
760.705	1165.92822
760.896	595.52217
761.087	883.0728
761.278	552.84477
761.468	360.68441
761.659	890.32157
761.85	900.28624
762.041	315.52709
762.231	1014.23303
762.422	504.45844
762.613	1071.52682
762.803	645.29188
762.994	1409.09642
763.185	447.88715
763.375	832.74369
763.566	613.64291
763.757	689.21511
763.947	722.61264
764.138	982.61647
764.328	1100.06647
764.519	1213.71828
764.709	814.58943
764.9	805.3574
765.09	741.87705
765.281	701.97083
765.471	454.31398
765.661	513.0116
765.852	526.75287
766.042	675.08701
766.232	262.90924
766.423	457.37391
766.613	602.98488
766.803	548.72642
766.994	733.53554
767.184	710.32015
767.374	1163.97945
767.564	1186.45945
767.755	816.70792
767.945	474.50385
768.135	621.25364
768.325	1193.35079
768.515	914.02089
768.706	693.77128
768.896	894.54935
769.086	1057.39937
769.276	879.74995
769.466	594.60825
769.656	733.68723
769.846	759.1602
770.036	947.80708
770.226	833.65116
770.416	641.48954
770.606	998.57866
770.796	1199.49207
770.986	850.13271
771.176	611.96831
771.366	728.37795
771.555	771.2835
771.745	399.33609
771.935	781.88788
772.125	622.16681
772.315	565.65398
772.504	893.49245
772.694	394.58401
772.884	905.26754
773.074	285.69126
773.263	670.83221
773.453	597.80686
773.643	1071.82735
773.832	859.5041
774.022	912.96456
774.212	560.01246
774.401	403.16786
774.591	110.6626
774.781	313.83618
774.97	690.88578
775.16	379.0962
775.349	319.67708
775.539	521.25709
775.728	314.45107
775.918	786.12871
776.107	1459.73757
776.297	2554.29799
776.486	4774.30282
776.675	5570.18498
776.865	4111.63297
777.054	1936.23152
777.243	1090.60566
777.433	1011.22309
777.622	932.57701
777.811	823.21388
778.001	856.3302
778.19	622.4712
778.379	426.7609
778.568	782.49374
778.758	519.27226
778.947	729.28817
779.136	762.19143
779.325	817.16186
779.514	212.20048
779.703	1009.11598
779.892	339.18954
780.082	538.04674
780.271	298.30601
780.46	842.27091
780.649	829.26485
780.838	678.27775
781.027	352.08833
781.216	354.54461
781.405	303.84246
781.594	842.27091
781.783	950.67144
781.971	1105.17134
782.16	527.36345
782.349	1234.82377
782.538	311.68398
782.727	964.98985
782.916	421.7068
783.105	966.04467
783.293	529.5004
783.482	1047.92804
783.671	810.04939
783.86	635.557
784.048	376.02836
784.237	127.68881
784.426	393.35754
784.614	598.41608
784.803	534.84214
784.992	153.0538
785.18	441.61204
785.369	762.19143
785.557	473.2806
785.746	754.76444
785.935	623.38433
786.123	482.30094
786.312	159.23686
786.5	666.72885
786.689	593.38965
786.877	581.04871
787.065	796.72852
787.254	54.24532
787.442	252.28173
787.631	604.65995
787.819	705.31081
788.007	890.32157
788.196	871.44148
788.384	852.85369
788.572	990.29725
788.761	292.61467
788.949	420.17508
789.137	608.61885
789.325	476.33864
789.513	412.66857
789.702	549.64166
789.89	802.93547
790.078	404.85369
790.266	295.07592
790.454	512.85889
790.642	448.95838
790.83	910.24816
791.018	565.95889
791.207	496.66691
791.395	839.09546
791.583	345.48608
791.771	909.34264
791.959	450.64167
792.146	414.35387
792.334	263.52521
792.522	554.67497
792.71	513.16432
792.898	595.21753
793.086	910.09724
793.274	498.95874
793.462	1071.82735
793.65	1076.48523
793.837	340.41824
794.025	884.28103
794.213	281.38252
794.401	902.39961
794.588	435.33564
794.776	265.21905
794.964	165.41855
795.151	759.91803
795.339	617.29629
795.527	456.91494
795.714	73.94272
795.902	452.01884
796.089	358.07515
796.277	138.9822
796.465	830.47492
796.652	584.0963
796.84	315.6808
797.027	666.57686
797.215	403.62764
797.402	831.5337
797.59	893.64344
797.777	420.17508
797.964	202.78859
798.152	390.13783
798.339	783.8569
798.526	174.37955
798.714	268.45247
798.901	475.42126
799.088	735.65903
799.276	381.09013
799.463	458.13884
799.65	362.67957
799.837	540.48813
800.025	241.49617
800.212	631.29709
800.399	496.51412
800.586	385.53765
800.773	348.09645
800.96	300.4592
801.148	796.72852
801.335	612.27279
801.522	858.44617
801.709	229.93569
801.896	632.97069
802.083	381.70362
802.27	308.60912
802.457	474.50385
802.644	360.99136
802.831	446.81588
803.018	330.12631
803.204	389.67784
803.391	539.26746
803.578	305.68772
803.765	422.47262
803.952	787.03739
804.139	378.63604
804.326	574.49543
804.512	488.7206
804.699	818.22104
804.886	350.70659
805.073	234.71459
805.259	454.77299
805.446	1390.76187
805.633	720.79182
805.819	884.43206
806.006	812.01682
806.192	534.99474
806.379	221.91766
806.566	324.59483
806.752	672.65576
806.939	346.25386
807.125	164.02779
807.312	517.74539
807.498	703.79267
807.685	730.04667
807.871	437.9382
808.058	658.82464
808.244	608.46659
808.43	688.60757
808.617	689.21511
808.803	631.44924
808.99	416.03907
809.176	420.78778
809.362	433.80461
809.549	462.11618
809.735	522.17312
809.921	114.06869
810.107	598.11147
810.293	379.70973
810.48	706.22165
810.666	577.08642
810.852	638.14311
811.038	382.47046
811.224	393.66416
811.41	519.27226
811.597	832.28995
811.783	71.61701
811.969	392.59097
812.155	69.60123
812.341	471.90438
812.527	461.50432
812.713	567.33099
812.899	351.78128
813.085	395.65712
813.271	600.85285
813.456	705.91804
813.642	234.86873
813.828	376.94874
814.014	832.28995
814.2	519.88299
814.386	453.54896
814.572	146.56011
814.757	655.78405
814.943	1036.64958
815.129	556.20006
815.315	582.26778
815.5	469.9164
815.686	815.80001
815.872	91.4567
816.057	241.34206
816.243	840.4564
816.429	309.99285
816.614	395.96372
816.8	324.44116
816.985	414.20066
817.171	540.03039
817.356	601.15744
817.542	567.17854
817.727	701.66718
817.913	179.16787
818.098	382.7772
818.284	292.61467
818.469	411.74928
818.655	414.96668
818.84	738.99567
819.025	188.89646
819.211	791.73187
819.396	901.94675
819.581	184.41864
819.767	346.40742
819.952	568.55058
820.137	743.09019
820.322	712.4451
820.508	1239.3129
820.693	594.91289
820.878	468.99883
821.063	562.29968
821.248	745.06145
821.433	170.05391
821.618	632.81855
821.804	313.68246
821.989	344.71829
822.174	595.97912
822.359	918.84941
822.544	80.91867
822.729	647.57307
822.914	80.29866
823.099	394.12409
823.284	323.51914
823.469	411.28962
823.653	539.11488
823.838	576.6292
824.023	339.03595
824.208	321.98238
824.393	644.68353
824.578	564.12934
824.762	27.23484
824.947	342.56834
825.132	479.09061
825.317	450.7947
825.501	526.29492
825.686	438.55054
825.871	347.94291
826.056	562.1472
826.24	589.12418
826.425	764.31313
826.609	154.13594
826.794	250.74119
826.979	485.96948
827.163	384.46417
827.348	262.29326
827.532	221.60923
827.717	411.9025
827.901	473.58641
828.086	518.96689
828.27	324.59483
828.455	588.97183
828.639	636.46977
828.823	556.96258
829.008	146.86937
829.192	239.64681
829.376	576.01957
829.561	197.07821
829.745	271.06973
829.929	-9.75501
830.114	571.75179
830.298	918.69853
830.482	324.13382
830.666	651.37471
830.85	323.05812
831.035	466.70479
831.219	82.93361
831.403	90.52704
831.587	100.13201
831.771	748.85201
831.955	515.60764
832.139	299.07502
832.323	528.58458
832.507	50.36618
832.691	315.37337
832.875	-14.11016
833.059	227.00629
833.243	-1.51329
833.427	319.98446
833.611	362.5261
833.795	96.87909
833.979	541.70876
834.163	231.16903
834.346	686.633
834.53	422.47262
834.714	614.40407
834.898	468.8459
835.082	347.63582
835.265	618.8184
835.449	208.03495
835.633	45.71047
835.816	430.28296
836	115.92637
836.184	529.65303
836.367	682.22777
836.551	550.86193
836.735	703.48904
836.918	-37.14228
837.102	410.98318
837.285	350.39953
837.469	406.53942
837.652	658.36857
837.836	249.97088
838.019	239.95504
838.203	433.03907
838.386	197.54126
838.569	221.45501
838.753	944.33941
838.936	225.15598
839.12	325.05582
839.303	456.14997
839.486	479.39637
839.669	159.85509
839.853	309.68536
840.036	348.40354
840.219	269.68415
840.402	8.12469
840.586	422.47262
840.769	504.15293
840.952	35.46506
841.135	726.70915
841.318	252.28173
841.501	200.16505
841.684	20.24492
841.868	657.30438
842.051	328.43624
842.234	535.45256
842.417	197.84995
842.6	562.45216
842.783	395.96372
842.966	480.61938
843.149	1069.27279
843.331	579.52481
843.514	1757.98813
843.697	2361.48078
843.88	2369.53175
844.063	1437.7009
844.246	904.3619
844.429	547.65862
844.611	514.69142
844.794	561.53729
844.977	561.68977
845.16	610.44587
845.342	577.39123
845.525	455.23199
845.708	46.33128
845.89	401.78848
846.073	122.73682
846.256	434.72323
846.438	276.61139
846.621	960.61956
846.803	396.88349
846.986	148.10636
847.168	238.56796
847.351	690.7339
847.533	461.04541
847.716	638.14311
847.898	737.02406
848.081	-19.24395
848.263	322.90444
848.446	202.94291
848.628	599.93909
848.81	261.52327
848.993	164.95497
849.175	140.68355
849.357	343.18263
849.539	335.81036
849.722	136.50733
849.904	155.37261
850.086	439.77518
850.268	945.24405
850.451	928.052
850.633	528.73722
850.815	149.65253
850.997	918.84941
851.179	194.6085
851.361	454.46699
851.543	263.98717
851.725	509.04078
851.907	291.07627
852.089	629.47124
852.271	308.60912
852.453	812.92482
852.635	498.3476
852.817	323.67281
852.999	329.05082
853.181	286.30674
853.363	276.14963
853.545	329.97267
853.727	301.07437
853.908	311.83771
854.09	597.34993
854.272	920.35819
854.454	351.01365
854.636	617.90514
854.817	178.85897
854.999	627.03661
855.181	422.62579
855.362	419.86873
855.544	189.82281
855.726	629.47124
855.907	331.35539
856.089	273.07101
856.27	361.14484
856.452	309.53161
856.634	650.00617
856.815	447.73412
856.997	576.78161
857.178	271.83947
857.36	-21.73342
857.541	48.34881
857.722	268.14454
857.904	488.7206
858.085	295.84502
858.267	619.42723
858.448	283.69085
858.629	459.9746
858.811	78.74857
858.992	490.40172
859.173	445.89762
859.354	435.02944
859.536	740.96717
859.717	21.79839
859.898	316.14194
860.079	347.32872
860.26	398.2631
860.441	614.55629
860.623	356.07968
860.804	255.0545
860.985	482.60667
861.166	333.50615
861.347	-26.09056
861.528	66.34464
861.709	577.54363
861.89	350.39953
862.071	593.99895
862.252	364.21421
862.433	230.3982
862.614	1121.2323
862.794	172.83476
862.975	536.97858
863.156	952.78187
863.337	295.38357
863.518	538.19934
863.699	353.16298
863.879	608.16208
864.06	309.53161
864.241	519.27226
864.422	402.40155
864.602	187.50687
864.783	709.25762
864.964	148.72484
865.144	388.91118
865.325	286.61447
865.506	543.84473
865.686	252.28173
865.867	482.60667
866.047	347.63582
866.228	523.08912
866.408	165.41855
866.589	466.09301
866.769	586.99124
866.95	335.81036
867.13	271.06973
867.31	392.59097
867.491	482.30094
867.671	52.3834
867.852	139.29154
868.032	689.82264
868.212	449.87655
868.393	665.51294
868.573	176.07873
868.753	208.80639
868.933	325.82413
869.113	355.77267
869.294	326.89974
869.474	495.59733
869.654	259.36717
869.834	424.76999
870.014	369.58486
870.194	114.37831
870.374	431.50793
870.555	278.45838
870.735	283.38309
870.915	383.39065
871.095	313.9899
871.275	471.75146
871.455	590.49529
871.634	238.72208
871.814	630.38417
871.994	374.49432
872.174	451.86583
872.354	744.45492
872.534	241.80438
872.714	282.76754
872.894	269.83811
873.073	459.36269
873.253	555.59003
873.433	158.61862
873.613	31.27262
873.792	562.45216
873.972	298.61362
874.152	248.58428
874.331	513.77517
874.511	791.42902
874.691	143.46734
874.87	274.14856
875.05	214.36014
875.229	248.89242
875.409	407.76535
875.588	242.1126
875.768	470.22226
875.947	860.25975
876.127	663.08099
876.306	467.77536
876.486	268.2985
876.665	441.3059
876.844	367.59016
877.024	895.30425
877.203	442.37737
877.382	253.82219
877.562	158.30949
877.741	349.0177
877.92	492.5412
878.1	611.66383
878.279	209.11496
878.458	209.88637
878.637	252.58983
878.816	537.43637
878.996	368.35737
879.175	424.00422
879.354	259.21316
879.533	641.03323
879.712	311.22277
879.891	331.35539
880.07	618.97061
880.249	577.84844
880.428	401.48194
880.607	616.23076
880.786	62.00192
880.965	716.99811
881.144	462.57507
881.323	110.50777
881.502	281.38252
881.68	290.30705
881.859	177.00551
882.038	511.63715
882.217	363.90729
882.396	23.50711
882.574	206.1834
882.753	354.23758
882.932	280.92084
883.111	660.64886
883.289	399.64265
883.468	396.88349
883.647	291.38396
883.825	513.46974
884.004	488.87343
884.182	381.09013
884.361	330.58722
884.539	253.20602
884.718	620.79705
884.896	79.67863
885.075	289.99935
885.253	649.39791
885.432	318.60121
885.61	114.99755
885.789	241.18795
885.967	273.99463
886.145	665.05696
886.324	414.20066
886.502	227.77721
886.68	514.386
886.859	199.54771
887.037	586.53416
887.215	321.52133
887.393	733.38386
887.572	106.79153
887.75	537.28377
887.928	573.27606
888.106	578.30564
888.284	641.18533
888.462	516.67653
888.64	331.66265
888.819	411.59606
888.997	504.6112
889.175	230.3982
889.353	90.06219
889.531	364.52113
889.709	263.6792
889.887	213.28033
890.065	614.55629
890.242	558.79254
890.42	653.19934
890.598	314.14363
890.776	556.20006
890.954	231.47736
891.132	112.05605
891.309	176.38766
891.487	495.44453
891.665	370.19859
891.843	285.84513
892.02	153.82676
892.198	456.76195
892.376	440.69362
892.553	637.38251
892.731	822.76002
892.909	402.24828
893.086	645.90021
893.264	338.57518
893.441	341.80047
893.619	219.75858
893.797	327.82165
893.974	409.75738
894.151	466.55185
894.329	240.26327
894.506	147.17862
894.684	264.91109
894.861	516.82923
895.039	200.01071
895.216	230.3982
895.393	435.33564
895.571	13.40855
895.748	187.66127
895.925	884.88513
896.102	533.77386
896.28	184.1098
896.457	98.11834
896.634	255.82467
896.811	72.54732
896.988	292.30699
897.166	332.89166
897.343	248.27614
897.52	481.078
897.697	239.03033
897.874	676.45451
898.051	599.63449
898.228	241.80438
898.405	102.91991
898.582	56.10711
898.759	217.44509
898.936	524.76839
899.113	663.23299
899.29	494.68052
899.467	734.14227
899.643	555.43752
899.82	621.40584
899.997	601.61431
900.174	-56.29931
900.351	497.58366
900.527	357.15418
900.704	362.37263
900.881	773.25313
901.058	155.21803
901.234	448.49929
901.411	585.31525
901.588	389.37118
901.764	525.37901
901.941	590.49529
902.117	321.21396
902.294	310.76156
902.471	705.91804
902.647	162.32788
902.824	245.04045
903	463.18692
903.176	385.07759
903.353	502.62531
903.529	202.78859
903.706	472.36313
903.882	316.44936
904.058	56.57254
904.235	57.50337
904.411	86.1882
904.587	423.85106
904.764	365.74878
904.94	227.62303
905.116	248.43021
905.292	490.40172
905.469	375.72155
905.645	302.61223
905.821	552.99729
905.997	119.02224
906.173	142.69409
906.349	233.1731
906.525	338.72877
906.702	311.06903
906.878	210.19493
907.054	196.4608
907.23	417.26462
907.406	221.45501
907.582	683.74688
907.757	328.58989
907.933	307.68661
908.109	495.29173
908.285	413.28142
908.461	403.0146
908.637	92.07645
908.813	260.90726
908.988	389.9845
909.164	461.65729
909.34	423.69791
909.516	153.36299
909.691	208.49781
909.867	590.95231
910.043	409.29769
910.219	450.48865
910.394	667.64075
910.57	437.63203
910.745	689.82264
910.921	594.76057
911.097	89.28744
911.272	-89.50724
911.448	689.21511
911.623	108.49487
911.799	63.86317
911.974	-9.59948
912.149	250.58713
912.325	308.60912
912.5	409.45092
912.676	201.39969
912.851	156.1455
913.026	509.65171
913.202	48.34881
913.377	160.47331
913.552	65.7243
913.727	805.66012
913.903	391.21111
914.078	183.49211
914.253	490.24889
914.428	321.21396
914.603	-147.29498
914.779	121.49868
914.954	318.29381
915.129	482.4538
915.304	450.94772
915.479	329.81903
915.654	366.82293
915.829	465.32828
916.004	-7.42218
916.179	564.58674
916.354	157.53666
916.529	553.30233
916.704	294.76828
916.879	507.81889
917.053	682.07585
917.228	127.06986
917.403	389.21785
917.578	726.10229
917.753	402.40155
917.927	93.62578
918.102	198.0043
918.277	237.6432
918.452	267.83661
918.626	234.4063
918.801	584.70578
918.976	330.12631
919.15	250.43307
919.325	536.82598
919.499	433.03907
919.674	522.02045
919.849	314.45107
920.023	577.54363
920.198	400.71558
920.372	361.29832
920.547	443.75491
920.721	37.79391
920.895	474.65675
921.07	247.96799
921.244	576.6292
921.419	584.0963
921.593	339.18954
921.767	424.00422
921.942	472.0573
922.116	27.07953
922.29	267.99057
922.464	272.3013
922.639	173.45268
922.813	122.27252
922.987	474.65675
923.161	73.16751
923.335	411.44284
923.509	386.61108
923.683	452.17186
923.858	393.51085
924.032	699.38971
924.206	480.61938
924.38	-45.39521
924.554	254.43836
924.728	251.66552
924.902	851.34206
925.075	505.83321
925.249	276.45747
925.423	653.35138
925.597	432.88596
925.771	280.15134
925.945	303.53491
926.119	855.12102
926.292	451.25376
926.466	429.67046
926.64	370.35202
926.814	485.05239
926.987	6.41498
927.161	118.86746
927.335	16.67158
927.508	530.26356
927.682	-156.83481
927.856	187.19806
928.029	540.03039
928.203	594.15128
928.376	517.44
928.55	194.91723
928.723	18.53599
928.897	411.28962
929.07	254.28432
929.244	650.61442
929.417	-61.75309
929.59	343.3362
929.764	185.9628
929.937	569.61769
930.111	691.3414
930.284	63.24277
930.457	-61.28557
930.63	207.10919
930.804	295.69121
930.977	352.70242
931.15	272.76313
931.323	826.54205
931.497	210.81204
931.67	377.25553
931.843	594.76057
932.016	12.47618
932.189	341.18615
932.362	472.66895
932.535	637.99099
932.708	414.20066
932.881	222.68872
933.054	499.11152
933.227	535.75777
933.4	67.89545
933.573	316.91048
933.746	163.87325
933.919	441.15283
934.092	303.22735
934.264	277.99664
934.437	344.71829
934.61	132.63991
934.783	282.92143
934.956	190.28598
935.128	396.42361
935.301	655.32794
935.474	180.86676
935.646	-2.2907
935.819	354.85163
935.992	325.20949
936.164	31.42791
936.337	160.1642
936.51	220.06703
936.682	283.53697
936.855	68.67081
937.027	776.13162
937.2	478.93773
937.372	157.84579
937.545	357.46117
937.717	317.67901
937.889	278.76619
938.062	531.78983
938.234	489.94324
938.406	179.16787
938.579	421.24729
938.751	455.84398
938.923	518.50883
939.096	650.00617
939.268	454.00797
939.44	394.73731
939.612	480.00788
939.784	522.17312
939.957	396.27031
940.129	436.86659
940.301	357.30767
940.473	336.27118
940.645	628.71043
940.817	548.42134
940.989	308.60912
941.161	185.80839
941.333	502.77808
941.505	208.34353
941.677	402.24828
941.849	82.46864
942.021	329.97267
942.193	127.06986
942.365	75.02799
942.537	383.69737
942.708	562.60463
942.88	403.16786
943.052	94.40042
943.224	102.3004
943.395	220.99236
943.567	231.93984
943.739	387.07112
943.911	70.53161
944.082	241.03384
944.254	750.36811
944.425	-46.32967
944.597	228.39394
944.769	426.60776
944.94	413.89425
945.112	833.04618
945.283	760.52428
945.455	67.74037
945.626	410.21706
945.798	251.20336
945.969	382.93056
946.14	483.52383
946.312	408.99123
946.483	256.74884
946.655	331.66265
946.826	406.99915
946.997	543.38704
947.168	19.6235
947.34	147.17862
947.511	576.01957
947.682	274.3025
947.853	182.10225
948.025	469.15176
948.196	154.44511
948.367	258.28907
948.538	161.86425
948.709	415.42628
948.88	214.97716
949.051	418.94966
949.222	196.4608
949.393	447.42804
949.564	333.04528
949.735	151.04401
949.906	145.1684
950.077	97.65363
950.248	537.74156
950.419	127.99828
950.59	155.06345
950.761	50.98688
950.931	588.05773
951.102	585.61998
951.273	340.57183
951.444	399.02952
951.614	569.77013
951.785	243.65361
951.956	323.51914
952.126	590.49529
952.297	966.7981
952.468	125.67717
952.638	101.52599
952.809	245.50271
952.98	246.5813
953.15	248.73835
953.321	84.48346
953.491	91.61164
953.662	382.16373
953.832	156.30008
954.002	180.86676
954.173	-178.11702
954.343	397.19008
954.514	-46.17392
954.684	34.844
954.854	355.77267
955.025	292.15316
955.195	336.42478
955.365	329.66539
955.535	96.41436
955.706	531.17933
955.876	394.27739
956.046	567.78834
956.216	456.30297
956.386	387.22446
956.557	426.30147
956.727	53.93501
956.897	317.67901
957.067	228.54811
957.237	231.01486
957.407	520.03567
957.577	361.45179
957.747	267.83661
957.917	189.9772
958.087	103.38453
958.257	414.50707
958.427	305.84148
958.596	-69.07853
958.766	536.21558
958.936	-200.04413
959.106	590.49529
959.276	181.33007
959.445	154.13594
959.615	429.67046
959.785	478.3262
959.955	825.78567
960.124	390.44448
960.294	507.97163
960.464	188.58767
960.633	81.22867
960.803	243.34541
960.972	311.37651
961.142	44.62402
961.311	205.10328
961.481	312.60637
961.65	396.88349
961.82	384.46417
961.989	792.79183
962.159	354.23758
962.328	667.48877
962.498	611.2071
962.667	-138.07136
962.836	227.77721
963.006	428.90481
963.175	277.99664
963.344	448.49929
963.513	180.71232
963.683	-80.77238
963.852	224.84759
964.021	175.30639
964.19	127.84354
964.359	162.17333
964.528	366.20914
964.698	-2.60167
964.867	249.66275
965.036	360.83788
965.205	696.50469
965.374	367.89705
965.543	486.7337
965.712	245.96497
965.881	242.1126
966.05	175.46086
966.219	269.37624
966.387	414.66028
966.556	470.22226
966.725	250.27901
966.894	524.92105
967.063	272.91707
967.232	474.50385
967.4	77.50843
967.569	176.69658
967.738	747.03259
967.906	127.06986
968.075	467.01067
968.244	78.59356
968.412	124.12966
968.581	428.13914
968.75	170.98089
968.918	286.15287
969.087	174.99744
969.255	412.975
969.424	380.93675
969.592	585.92471
969.761	271.37763
969.929	339.65031
970.098	463.79875
970.266	-93.4077
970.434	163.25511
970.603	418.94966
970.771	448.80535
970.939	336.8856
971.108	586.68652
971.276	144.3952
971.444	463.03396
971.612	-257.61699
971.781	208.96067
971.949	1019.49986
972.117	267.83661
972.285	639.05581
972.453	-45.55095
972.621	173.91612
972.789	218.52474
972.957	691.18953
973.125	40.27779
973.293	251.20336
973.461	374.1875
973.629	683.74688
973.797	151.19862
973.965	413.28142
974.133	206.6463
974.301	340.41824
974.469	57.03796
974.637	271.37763
974.805	683.59497
974.972	420.94095
975.14	553.75988
975.308	275.07215
975.476	67.12006
975.643	517.13462
975.811	71.92712
975.979	819.8854
976.146	261.21526
976.314	546.89588
976.482	324.74849
976.649	159.23686
976.817	406.84591
976.984	478.02043
977.152	145.32304
977.319	691.03765
977.487	639.81637
977.654	536.21558
977.822	-30.91538
977.989	403.0146
978.156	213.74311
978.324	342.72192
978.491	149.96176
978.658	-67.67562
978.826	335.81036
978.993	413.74104
979.16	250.27901
979.328	277.84273
979.495	491.6243
979.662	84.48346
979.829	161.86425
979.996	596.13144
980.163	513.0116
980.33	38.1044
980.498	277.68881
980.665	517.28731
980.832	-95.43617
980.999	407.30564
981.166	216.67388
981.333	613.79514
981.5	341.95404
981.667	1104.42066
981.833	-86.38731
982	620.34045
982.167	95.94961
982.334	295.38357
982.501	218.8332
982.668	358.22864
982.834	-9.91053
983.001	605.26904
983.168	651.37471
983.335	217.75356
983.501	284.92189
983.668	199.85638
983.835	209.57781
984.001	592.32334
984.168	23.50711
984.334	501.2504
984.501	264.7571
984.668	174.0706
984.834	34.06765
985.001	-53.33917
985.167	601.15744
985.334	-10.22159
985.5	112.83016
985.666	48.81437
985.833	-141.19763
985.999	302.30467
986.165	346.86807
986.332	655.78405
986.498	333.967
986.664	381.85699
986.831	353.47001
986.997	288.61468
987.163	46.48648
987.329	247.04354
987.495	-54.42971
987.662	530.56882
987.828	-9.75501
987.994	493.30526
988.16	494.0693
988.326	251.51147
988.492	172.98924
988.658	525.53167
988.824	361.91221
988.99	104.77836
989.156	59.8303
989.322	885.48922
989.488	419.10284
989.654	186.58044
989.82	247.96799
989.985	640.72902
990.151	469.61055
990.317	749.91329
990.483	-29.35889
990.648	531.48458
990.814	324.28749
990.98	378.17588
991.146	395.19722
991.311	582.72492
991.477	408.07183
991.643	3.30614
991.808	40.43302
991.974	-79.83667
992.139	299.53642
992.305	332.89166
992.47	108.49487
992.636	451.55979
992.801	492.69401
992.967	369.12456
993.132	168.50887
993.298	993.15831
993.463	160.93696
993.628	360.22396
993.794	153.82676
993.959	592.32334
994.124	-7.42218
994.29	361.60527
994.455	532.09507
994.62	405.4667
994.785	577.39123
994.95	147.48787
995.116	513.31703
995.281	280.15134
995.446	233.4814
995.611	-76.25013
995.776	176.38766
995.941	522.32578
996.106	114.84274
996.271	344.71829
996.436	415.73268
996.601	616.23076
996.766	161.86425
996.931	467.01067
997.096	301.53574
997.261	134.34164
997.425	465.48123
997.59	162.32788
997.755	211.27486
997.92	276.45747
998.085	238.72208
998.249	140.52888
998.414	-111.35745
998.579	-7.11116
998.744	258.5971
998.908	559.40251
999.073	603.74629
999.237	497.43087
999.402	80.60867
999.567	277.99664
999.731	286.92221
999.896	-39.94487
1000.06	564.7392
1000.225	367.28327
1000.389	386.76443
1000.553	413.28142
1000.718	493.30526
1000.882	-115.8859
1001.047	253.82219
1001.211	127.37934
1001.375	662.16896
1001.54	186.88925
1001.704	107.10123
1001.868	643.01053
1002.032	785.22
1002.197	364.52113
1002.361	175.92426
1002.525	364.06075
1002.689	408.22506
1002.853	197.23256
1003.017	40.27779
1003.181	168.66338
1003.345	229.319
1003.509	608.46659
1003.673	403.32112
1003.837	557.72507
1004.001	276.91923
1004.165	296.76792
1004.329	518.50883
1004.493	349.78539
1004.657	315.83451
1004.821	90.99187
1004.985	415.42628
1005.149	331.50902
1005.312	335.81036
1005.476	310.45407
1005.64	882.01556
1005.804	217.75356
1005.967	498.80596
1006.131	548.2688
1006.295	469.45762
1006.458	442.07124
1006.622	302.91979
1006.785	368.81768
1006.949	597.19762
1007.113	290.61474
1007.276	266.91279
1007.44	545.98057
1007.603	86.49814
1007.767	356.23318
1007.93	187.81567
1008.093	247.19762
1008.257	306.76406
1008.42	-76.25013
1008.584	469.45762
1008.747	294.46063
1008.91	369.12456
1009.073	25.68168
1009.237	309.07037
1009.4	403.32112
1009.563	-184.37993
1009.726	234.71459
1009.889	824.72672
1010.053	457.37391
1010.216	232.71063
1010.379	572.97121
1010.542	776.28311
1010.705	476.79731
1010.868	521.25709
1011.031	499.56987
1011.194	273.22495
1011.357	340.41824
1011.52	98.11834
1011.683	159.54598
1011.846	272.91707
1012.009	492.5412
1012.171	365.74878
1012.334	413.89425
1012.497	607.09625
1012.66	191.52105
1012.823	258.5971
1012.985	681.01243
1013.148	502.62531
1013.311	319.67708
1013.473	324.59483
1013.636	77.50843
1013.799	557.26758
1013.961	541.4036
1014.124	327.82165
1014.286	420.32826
1014.449	-15.97687
1014.612	625.21052
1014.774	117.00997
1014.936	221.76345
1015.099	-46.95266
1015.261	23.81777
1015.424	327.20704
1015.586	399.33609
1015.748	238.10558
1015.911	75.02799
1016.073	1064.31346
1016.235	532.24769
1016.398	354.54461
1016.56	617.29629
1016.722	3.30614
1016.884	164.95497
1017.047	459.05673
1017.209	410.67673
1017.371	-1.04686
1017.533	184.26422
1017.695	588.21008
1017.857	533.31602
1018.019	571.59936
1018.181	487.80359
1018.343	266.60484
1018.505	349.93893
1018.667	-178.74324
1018.829	145.01376
1018.991	416.49866
1019.153	430.28296
1019.315	-167.31717
1019.477	182.56554
1019.638	131.40222
1019.8	43.07188
1019.962	452.17186
1020.124	149.34331
1020.285	290.76858
1020.447	435.79493
1020.609	229.01065
1020.77	174.0706
1020.932	884.28103
1021.094	141.30219
1021.255	106.32696
1021.417	699.23787
1021.578	77.81847
1021.74	344.10403
1021.901	271.99342
1022.063	290.30705
1022.224	528.12666
1022.386	405.61995
1022.547	429.21107
1022.709	415.57948
1022.87	597.19762
1023.031	380.63
1023.193	133.41344
1023.354	448.49929
1023.515	354.54461
1023.676	461.50432
1023.838	367.12983
1023.999	301.84331
1024.16	385.07759
1024.321	517.59269
1024.482	406.99915
1024.644	774.01065
1024.805	525.83697
1024.966	313.52873
1025.127	54.55563
1025.288	345.7932
1025.449	748.39716
1025.61	368.20393
1025.771	510.87353
1025.932	612.88174
1026.093	550.2518
1026.253	304.45756
1026.414	-259.97298
1026.575	172.98924
1026.736	13.71933
1026.897	212.9718
1027.058	431.04857
1027.218	349.32478
1027.379	-45.55095
1027.54	469.9164
1027.7	311.68398
1027.861	531.94245
1028.022	363.4469
1028.182	263.52521
1028.343	320.29184
1028.504	121.96299
1028.664	177.00551
1028.825	332.43079
1028.985	338.72877
1029.146	112.98498
1029.306	97.96344
1029.466	761.73676
1029.627	557.57258
1029.787	267.52867
1029.948	175.61533
1030.108	318.90861
1030.268	585.77235
1030.429	90.68198
1030.589	256.59482
1030.749	274.45643
1030.909	307.07158
1031.07	440.69362
1031.23	326.89974
1031.39	-2.13522
1031.55	390.59781
1031.71	-25.31244
1031.87	240.10916
1032.03	487.03939
1032.19	255.36257
1032.35	292.61467
1032.51	529.80567
1032.67	89.75229
1032.83	214.36014
1032.99	291.99932
1033.15	484.28812
1033.31	495.13893
1033.47	43.53753
1033.63	384.31081
1033.79	296.6141
1033.949	111.90123
1034.109	498.04203
1034.269	258.75112
1034.429	606.18266
1034.588	493.9165
1034.748	143.62198
1034.908	412.975
1035.067	372.65336
1035.227	319.67708
1035.387	355.46566
1035.546	712.4451
1035.706	39.19112
1035.865	612.42503
1036.025	235.02288
1036.184	269.68415
1036.344	350.09246
1036.503	589.73357
1036.662	97.49872
1036.822	439.92825
1036.981	219.9128
1037.14	398.2631
1037.3	160.78241
1037.459	219.9128
1037.618	477.86754
1037.778	513.92788
1037.937	388.91118
1038.096	382.93056
1038.255	336.8856
1038.414	206.3377
1038.573	745.97122
1038.733	451.40677
1038.892	490.09607
1039.051	697.11208
1039.21	739.75395
1039.369	176.38766
1039.528	482.30094
1039.687	477.56177
1039.846	493.30526
1040.005	145.32304
1040.164	443.14267
1040.322	204.64036
1040.481	315.98823
1040.64	296.30647
1040.799	46.64168
1040.958	726.10229
1041.116	334.27424
1041.275	134.03224
1041.434	349.78539
1041.593	38.57014
1041.751	241.95849
1041.91	577.23883
1042.069	-17.377
1042.227	370.35202
1042.386	637.83888
1042.544	187.81567
1042.703	252.43578
1042.861	297.07554
1043.02	112.67534
1043.178	627.34095
1043.337	681.92394
1043.495	440.69362
1043.653	125.36767
1043.812	95.17503
1043.97	268.14454
1044.129	271.06973
1044.287	370.8123
1044.445	444.97933
1044.603	-115.72973
1044.762	-72.66408
1044.92	732.47375
1045.078	381.85699
1045.236	276.91923
1045.394	355.61916
1045.552	772.34408
